#X		#Y		#Wave		#Intensity
-242.500000	-1465.000000	1819.745117	3893.630127
-242.500000	-1465.000000	1818.780273	3841.784180
-242.500000	-1465.000000	1817.815430	4009.406250
-242.500000	-1465.000000	1816.850586	3873.788818
-242.500000	-1465.000000	1815.885742	3953.250488
-242.500000	-1465.000000	1814.920898	3970.516602
-242.500000	-1465.000000	1813.955078	3886.786133
-242.500000	-1465.000000	1812.989258	3997.259521
-242.500000	-1465.000000	1812.023438	3947.208252
-242.500000	-1465.000000	1811.057617	3897.178711
-242.500000	-1465.000000	1810.091797	3973.944092
-242.500000	-1465.000000	1809.125000	3923.930664
-242.500000	-1465.000000	1808.158203	4034.275635
-242.500000	-1465.000000	1807.191406	3966.172363
-242.500000	-1465.000000	1806.223633	3892.928955
-242.500000	-1465.000000	1805.256836	3956.689941
-242.500000	-1465.000000	1804.289063	3973.914063
-242.500000	-1465.000000	1803.321289	4055.712402
-242.500000	-1465.000000	1802.353516	3982.513428
-242.500000	-1465.000000	1801.384766	4022.959961
-242.500000	-1465.000000	1800.416992	4076.296875
-242.500000	-1465.000000	1799.448242	4039.275391
-242.500000	-1465.000000	1798.479492	4025.494141
-242.500000	-1465.000000	1797.510742	4086.535400
-242.500000	-1465.000000	1796.541016	3938.625000
-242.500000	-1465.000000	1795.571289	4087.336426
-242.500000	-1465.000000	1794.601563	3985.897949
-242.500000	-1465.000000	1793.631836	4015.963135
-242.500000	-1465.000000	1792.662109	4048.592285
-242.500000	-1465.000000	1791.691406	4114.702148
-242.500000	-1465.000000	1790.721680	4080.320801
-242.500000	-1465.000000	1789.750977	4069.133057
-242.500000	-1465.000000	1788.779297	4142.919922
-242.500000	-1465.000000	1787.808594	4098.257813
-242.500000	-1465.000000	1786.836914	4110.236816
-242.500000	-1465.000000	1785.865234	3967.820801
-242.500000	-1465.000000	1784.893555	4033.847900
-242.500000	-1465.000000	1783.921875	4161.575195
-242.500000	-1465.000000	1782.949219	4158.101563
-242.500000	-1465.000000	1781.977539	4031.224365
-242.500000	-1465.000000	1781.004883	4153.728516
-242.500000	-1465.000000	1780.031250	4080.873535
-242.500000	-1465.000000	1779.058594	4190.467773
-242.500000	-1465.000000	1778.084961	4084.243164
-242.500000	-1465.000000	1777.112305	4214.334473
-242.500000	-1465.000000	1776.138672	4251.936035
-242.500000	-1465.000000	1775.164063	4094.426025
-242.500000	-1465.000000	1774.190430	4209.031738
-242.500000	-1465.000000	1773.215820	4192.725586
-242.500000	-1465.000000	1772.241211	4202.080078
-242.500000	-1465.000000	1771.266602	4165.263672
-242.500000	-1465.000000	1770.291992	4287.447754
-242.500000	-1465.000000	1769.316406	4281.393555
-242.500000	-1465.000000	1768.340820	4121.552246
-242.500000	-1465.000000	1767.365234	4259.041992
-242.500000	-1465.000000	1766.389648	4232.501465
-242.500000	-1465.000000	1765.414063	4226.464355
-242.500000	-1465.000000	1764.437500	4251.161133
-242.500000	-1465.000000	1763.460938	4280.967773
-242.500000	-1465.000000	1762.484375	4205.808105
-242.500000	-1465.000000	1761.507813	4378.931641
-242.500000	-1465.000000	1760.531250	4203.993164
-242.500000	-1465.000000	1759.553711	4205.644531
-242.500000	-1465.000000	1758.576172	4324.945313
-242.500000	-1465.000000	1757.598633	4334.241211
-242.500000	-1465.000000	1756.620117	4287.289063
-242.500000	-1465.000000	1755.642578	4240.357422
-242.500000	-1465.000000	1754.664063	4300.773438
-242.500000	-1465.000000	1753.685547	4363.718262
-242.500000	-1465.000000	1752.707031	4281.040039
-242.500000	-1465.000000	1751.727539	4269.902832
-242.500000	-1465.000000	1750.749023	4445.155273
-242.500000	-1465.000000	1749.769531	4393.144531
-242.500000	-1465.000000	1748.790039	4272.249023
-242.500000	-1465.000000	1747.809570	4335.118652
-242.500000	-1465.000000	1746.830078	4392.859375
-242.500000	-1465.000000	1745.849609	4294.996094
-242.500000	-1465.000000	1744.869141	4258.373047
-242.500000	-1465.000000	1743.888672	4463.956543
-242.500000	-1465.000000	1742.908203	4417.117676
-242.500000	-1465.000000	1741.926758	4367.750488
-242.500000	-1465.000000	1740.945313	4552.795898
-242.500000	-1465.000000	1739.963867	4511.062500
-242.500000	-1465.000000	1738.982422	4387.854492
-242.500000	-1465.000000	1738.000000	4491.301270
-242.500000	-1465.000000	1737.018555	4561.611328
-242.500000	-1465.000000	1736.036133	4542.816406
-242.500000	-1465.000000	1735.053711	4419.707520
-242.500000	-1465.000000	1734.070313	4495.075195
-242.500000	-1465.000000	1733.087891	4636.538086
-242.500000	-1465.000000	1732.104492	4655.885254
-242.500000	-1465.000000	1731.121094	4604.041016
-242.500000	-1465.000000	1730.137695	4562.385254
-242.500000	-1465.000000	1729.154297	4670.677246
-242.500000	-1465.000000	1728.169922	4700.162598
-242.500000	-1465.000000	1727.185547	4739.795898
-242.500000	-1465.000000	1726.201172	4713.383789
-242.500000	-1465.000000	1725.216797	4699.678223
-242.500000	-1465.000000	1724.231445	4807.824219
-242.500000	-1465.000000	1723.247070	4778.876465
-242.500000	-1465.000000	1722.261719	4836.211914
-242.500000	-1465.000000	1721.276367	4847.859375
-242.500000	-1465.000000	1720.290039	4823.994629
-242.500000	-1465.000000	1719.304688	4828.032715
-242.500000	-1465.000000	1718.318359	4986.715332
-242.500000	-1465.000000	1717.332031	4869.053711
-242.500000	-1465.000000	1716.345703	4827.465332
-242.500000	-1465.000000	1715.358398	4841.633301
-242.500000	-1465.000000	1714.372070	4888.724121
-242.500000	-1465.000000	1713.384766	4930.729980
-242.500000	-1465.000000	1712.397461	4934.738770
-242.500000	-1465.000000	1711.409180	4918.494629
-242.500000	-1465.000000	1710.421875	4904.788086
-242.500000	-1465.000000	1709.433594	4934.102539
-242.500000	-1465.000000	1708.445313	4950.755859
-242.500000	-1465.000000	1707.457031	4871.291016
-242.500000	-1465.000000	1706.468750	4842.433594
-242.500000	-1465.000000	1705.479492	4894.489746
-242.500000	-1465.000000	1704.490234	4938.940430
-242.500000	-1465.000000	1703.500977	4930.303223
-242.500000	-1465.000000	1702.511719	5103.580078
-242.500000	-1465.000000	1701.521484	5059.547852
-242.500000	-1465.000000	1700.532227	4970.076172
-242.500000	-1465.000000	1699.541992	5140.708008
-242.500000	-1465.000000	1698.551758	5132.037109
-242.500000	-1465.000000	1697.560547	5176.369629
-242.500000	-1465.000000	1696.570313	5129.845215
-242.500000	-1465.000000	1695.579102	5290.206055
-242.500000	-1465.000000	1694.587891	5127.654785
-242.500000	-1465.000000	1693.596680	5313.164063
-242.500000	-1465.000000	1692.604492	5286.818848
-242.500000	-1465.000000	1691.613281	5472.214844
-242.500000	-1465.000000	1690.621094	5397.965332
-242.500000	-1465.000000	1689.628906	5318.708496
-242.500000	-1465.000000	1688.636719	5435.965820
-242.500000	-1465.000000	1687.643555	5437.324707
-242.500000	-1465.000000	1686.650391	5438.683105
-242.500000	-1465.000000	1685.657227	5502.975098
-242.500000	-1465.000000	1684.664063	5360.858887
-242.500000	-1465.000000	1683.670898	5432.688477
-242.500000	-1465.000000	1682.676758	5444.108887
-242.500000	-1465.000000	1681.683594	5458.040039
-242.500000	-1465.000000	1680.689453	5512.199707
-242.500000	-1465.000000	1679.694336	5503.482422
-242.500000	-1465.000000	1678.700195	5607.881348
-242.500000	-1465.000000	1677.705078	5654.435059
-242.500000	-1465.000000	1676.709961	5683.380859
-242.500000	-1465.000000	1675.714844	5609.321777
-242.500000	-1465.000000	1674.719727	5658.356445
-242.500000	-1465.000000	1673.723633	5594.377930
-242.500000	-1465.000000	1672.728516	5748.831543
-242.500000	-1465.000000	1671.732422	5709.959473
-242.500000	-1465.000000	1670.735352	5711.252930
-242.500000	-1465.000000	1669.739258	5710.037109
-242.500000	-1465.000000	1668.742188	5839.251465
-242.500000	-1465.000000	1667.746094	5787.853516
-242.500000	-1465.000000	1666.748047	5681.319336
-242.500000	-1465.000000	1665.750977	5657.549805
-242.500000	-1465.000000	1664.753906	5646.321289
-242.500000	-1465.000000	1663.755859	5595.007813
-242.500000	-1465.000000	1662.757813	5686.504883
-242.500000	-1465.000000	1661.759766	5600.141113
-242.500000	-1465.000000	1660.761719	5573.909668
-242.500000	-1465.000000	1659.762695	5652.834961
-242.500000	-1465.000000	1658.763672	5589.059082
-242.500000	-1465.000000	1657.764648	5723.000000
-242.500000	-1465.000000	1656.765625	5651.730469
-242.500000	-1465.000000	1655.765625	5537.968262
-242.500000	-1465.000000	1654.766602	5441.760254
-242.500000	-1465.000000	1653.766602	5525.612305
-242.500000	-1465.000000	1652.766602	5626.927246
-242.500000	-1465.000000	1651.765625	5678.214844
-242.500000	-1465.000000	1650.765625	5594.551270
-242.500000	-1465.000000	1649.764648	5610.849121
-242.500000	-1465.000000	1648.763672	5654.613770
-242.500000	-1465.000000	1647.762695	5610.961426
-242.500000	-1465.000000	1646.761719	5749.576172
-242.500000	-1465.000000	1645.759766	5820.739258
-242.500000	-1465.000000	1644.757813	5794.547363
-242.500000	-1465.000000	1643.755859	5788.326172
-242.500000	-1465.000000	1642.753906	5996.629395
-242.500000	-1465.000000	1641.750977	5893.104980
-242.500000	-1465.000000	1640.749023	6106.283691
-242.500000	-1465.000000	1639.746094	5930.487305
-242.500000	-1465.000000	1638.742188	6003.997070
-242.500000	-1465.000000	1637.739258	5920.493164
-242.500000	-1465.000000	1636.735352	5874.393066
-242.500000	-1465.000000	1635.732422	5927.941406
-242.500000	-1465.000000	1634.728516	5839.525391
-242.500000	-1465.000000	1633.723633	5820.857910
-242.500000	-1465.000000	1632.719727	5675.251465
-242.500000	-1465.000000	1631.714844	5549.615723
-242.500000	-1465.000000	1630.709961	5580.782715
-242.500000	-1465.000000	1629.705078	5482.583008
-242.500000	-1465.000000	1628.700195	5521.211426
-242.500000	-1465.000000	1627.694336	5487.714844
-242.500000	-1465.000000	1626.689453	5426.886719
-242.500000	-1465.000000	1625.683594	5341.229492
-242.500000	-1465.000000	1624.676758	5292.882324
-242.500000	-1465.000000	1623.670898	5423.431641
-242.500000	-1465.000000	1622.664063	5285.667969
-242.500000	-1465.000000	1621.657227	5468.313477
-242.500000	-1465.000000	1620.650391	5491.980957
-242.500000	-1465.000000	1619.643555	5431.240723
-242.500000	-1465.000000	1618.635742	5335.781250
-242.500000	-1465.000000	1617.628906	5272.618164
-242.500000	-1465.000000	1616.621094	5350.882324
-242.500000	-1465.000000	1615.613281	5362.147461
-242.500000	-1465.000000	1614.604492	5294.059082
-242.500000	-1465.000000	1613.596680	5426.809082
-242.500000	-1465.000000	1612.587891	5383.521484
-242.500000	-1465.000000	1611.579102	5422.028320
-242.500000	-1465.000000	1610.569336	5438.221191
-242.500000	-1465.000000	1609.560547	5323.124023
-242.500000	-1465.000000	1608.550781	5482.967285
-242.500000	-1465.000000	1607.541016	5526.372070
-242.500000	-1465.000000	1606.531250	5480.641602
-242.500000	-1465.000000	1605.521484	5573.525879
-242.500000	-1465.000000	1604.510742	5639.152344
-242.500000	-1465.000000	1603.500000	5677.538574
-242.500000	-1465.000000	1602.489258	5755.481445
-242.500000	-1465.000000	1601.478516	5660.292969
-242.500000	-1465.000000	1600.467773	5604.702148
-242.500000	-1465.000000	1599.456055	5474.980957
-242.500000	-1465.000000	1598.444336	5585.025879
-242.500000	-1465.000000	1597.432617	5435.598145
-242.500000	-1465.000000	1596.419922	5446.795898
-242.500000	-1465.000000	1595.408203	5497.504395
-242.500000	-1465.000000	1594.395508	5535.844727
-242.500000	-1465.000000	1593.382813	5440.862793
-242.500000	-1465.000000	1592.370117	5375.538086
-242.500000	-1465.000000	1591.356445	5359.592285
-242.500000	-1465.000000	1590.343750	5311.581543
-242.500000	-1465.000000	1589.330078	5480.646484
-242.500000	-1465.000000	1588.316406	5393.173340
-242.500000	-1465.000000	1587.301758	5468.459961
-242.500000	-1465.000000	1586.288086	5445.115723
-242.500000	-1465.000000	1585.273438	5522.822754
-242.500000	-1465.000000	1584.258789	5398.455566
-242.500000	-1465.000000	1583.244141	5490.919922
-242.500000	-1465.000000	1582.228516	5428.183594
-242.500000	-1465.000000	1581.213867	5468.892090
-242.500000	-1465.000000	1580.198242	5455.423340
-242.500000	-1465.000000	1579.182617	5552.718750
-242.500000	-1465.000000	1578.166016	5347.295410
-242.500000	-1465.000000	1577.150391	5542.982910
-242.500000	-1465.000000	1576.133789	5455.716309
-242.500000	-1465.000000	1575.117188	5454.559082
-242.500000	-1465.000000	1574.100586	5382.100098
-242.500000	-1465.000000	1573.083984	5513.700195
-242.500000	-1465.000000	1572.066406	5485.496582
-242.500000	-1465.000000	1571.048828	5508.904297
-242.500000	-1465.000000	1570.031250	5505.279297
-242.500000	-1465.000000	1569.013672	5477.094727
-242.500000	-1465.000000	1567.995117	5372.798828
-242.500000	-1465.000000	1566.976563	5528.782715
-242.500000	-1465.000000	1565.958008	5407.337402
-242.500000	-1465.000000	1564.939453	5457.725098
-242.500000	-1465.000000	1563.920898	5547.346191
-242.500000	-1465.000000	1562.901367	5511.828125
-242.500000	-1465.000000	1561.881836	5498.396484
-242.500000	-1465.000000	1560.862305	5614.922852
-242.500000	-1465.000000	1559.842773	5398.007324
-242.500000	-1465.000000	1558.822266	5433.625488
-242.500000	-1465.000000	1557.802734	5589.296387
-242.500000	-1465.000000	1556.782227	5482.767090
-242.500000	-1465.000000	1555.761719	5564.880859
-242.500000	-1465.000000	1554.740234	5507.377441
-242.500000	-1465.000000	1553.719727	5626.174805
-242.500000	-1465.000000	1552.698242	5524.622559
-242.500000	-1465.000000	1551.676758	5513.661133
-242.500000	-1465.000000	1550.654297	5600.573242
-242.500000	-1465.000000	1549.632813	5614.062012
-242.500000	-1465.000000	1548.610352	5585.968262
-242.500000	-1465.000000	1547.587891	5567.666504
-242.500000	-1465.000000	1546.565430	5661.826172
-242.500000	-1465.000000	1545.542969	5597.076660
-242.500000	-1465.000000	1544.519531	5424.835449
-242.500000	-1465.000000	1543.496094	5528.737305
-242.500000	-1465.000000	1542.472656	5547.104004
-242.500000	-1465.000000	1541.449219	5616.746094
-242.500000	-1465.000000	1540.424805	5522.774902
-242.500000	-1465.000000	1539.400391	5516.720703
-242.500000	-1465.000000	1538.375977	5605.848145
-242.500000	-1465.000000	1537.351563	5538.777832
-242.500000	-1465.000000	1536.327148	5683.970215
-242.500000	-1465.000000	1535.301758	5648.617676
-242.500000	-1465.000000	1534.276367	5535.250000
-242.500000	-1465.000000	1533.250977	5585.270508
-242.500000	-1465.000000	1532.225586	5557.272949
-242.500000	-1465.000000	1531.199219	5621.888184
-242.500000	-1465.000000	1530.173828	5732.767090
-242.500000	-1465.000000	1529.147461	5592.705566
-242.500000	-1465.000000	1528.121094	5516.022461
-242.500000	-1465.000000	1527.093750	5709.635254
-242.500000	-1465.000000	1526.067383	5659.736328
-242.500000	-1465.000000	1525.040039	5636.629883
-242.500000	-1465.000000	1524.012695	5623.265625
-242.500000	-1465.000000	1522.984375	5546.655762
-242.500000	-1465.000000	1521.957031	5579.527832
-242.500000	-1465.000000	1520.928711	5532.139648
-242.500000	-1465.000000	1519.900391	5620.917480
-242.500000	-1465.000000	1518.872070	5546.802734
-242.500000	-1465.000000	1517.842773	5630.678711
-242.500000	-1465.000000	1516.814453	5687.792969
-242.500000	-1465.000000	1515.785156	5701.158691
-242.500000	-1465.000000	1514.755859	5687.803223
-242.500000	-1465.000000	1513.725586	5708.446777
-242.500000	-1465.000000	1512.696289	5692.666992
-242.500000	-1465.000000	1511.666016	5698.737305
-242.500000	-1465.000000	1510.635742	5772.748047
-242.500000	-1465.000000	1509.605469	5754.538086
-242.500000	-1465.000000	1508.574219	5775.143555
-242.500000	-1465.000000	1507.543945	5628.415039
-242.500000	-1465.000000	1506.512695	5748.441406
-242.500000	-1465.000000	1505.481445	5749.642090
-242.500000	-1465.000000	1504.449219	5704.796387
-242.500000	-1465.000000	1503.417969	5902.262695
-242.500000	-1465.000000	1502.385742	5682.988770
-242.500000	-1465.000000	1501.353516	5788.342773
-242.500000	-1465.000000	1500.321289	5787.110352
-242.500000	-1465.000000	1499.288086	5904.500977
-242.500000	-1465.000000	1498.255859	5881.460449
-242.500000	-1465.000000	1497.222656	5824.551758
-242.500000	-1465.000000	1496.189453	5794.279297
-242.500000	-1465.000000	1495.155273	5851.096680
-242.500000	-1465.000000	1494.122070	5934.490723
-242.500000	-1465.000000	1493.087891	5819.590820
-242.500000	-1465.000000	1492.053711	5931.962402
-242.500000	-1465.000000	1491.018555	5981.450195
-242.500000	-1465.000000	1489.984375	5985.007813
-242.500000	-1465.000000	1488.949219	5923.339355
-242.500000	-1465.000000	1487.914063	6105.632324
-242.500000	-1465.000000	1486.878906	6029.475586
-242.500000	-1465.000000	1485.843750	6040.261230
-242.500000	-1465.000000	1484.807617	6072.764648
-242.500000	-1465.000000	1483.771484	5929.094238
-242.500000	-1465.000000	1482.735352	6251.122070
-242.500000	-1465.000000	1481.699219	6107.474121
-242.500000	-1465.000000	1480.662109	6139.933594
-242.500000	-1465.000000	1479.625000	6239.889648
-242.500000	-1465.000000	1478.587891	6308.464844
-242.500000	-1465.000000	1477.550781	6109.494141
-242.500000	-1465.000000	1476.513672	6419.021484
-242.500000	-1465.000000	1475.475586	6376.697754
-242.500000	-1465.000000	1474.437500	6336.800781
-242.500000	-1465.000000	1473.399414	6386.015625
-242.500000	-1465.000000	1472.361328	6413.542480
-242.500000	-1465.000000	1471.322266	6566.219238
-242.500000	-1465.000000	1470.283203	6511.874512
-242.500000	-1465.000000	1469.244141	6652.434570
-242.500000	-1465.000000	1468.205078	6727.987305
-242.500000	-1465.000000	1467.166016	6798.697754
-242.500000	-1465.000000	1466.125977	6674.620605
-242.500000	-1465.000000	1465.085938	6711.656250
-242.500000	-1465.000000	1464.045898	6782.323242
-242.500000	-1465.000000	1463.004883	6941.865234
-242.500000	-1465.000000	1461.964844	6740.986816
-242.500000	-1465.000000	1460.923828	6974.925293
-242.500000	-1465.000000	1459.882813	6862.973145
-242.500000	-1465.000000	1458.841797	6945.533691
-242.500000	-1465.000000	1457.799805	6951.249023
-242.500000	-1465.000000	1456.757813	6978.559570
-242.500000	-1465.000000	1455.715820	7193.000488
-242.500000	-1465.000000	1454.673828	6999.561035
-242.500000	-1465.000000	1453.631836	7113.178711
-242.500000	-1465.000000	1452.588867	6998.963379
-242.500000	-1465.000000	1451.545898	7066.984375
-242.500000	-1465.000000	1450.502930	7041.504395
-242.500000	-1465.000000	1449.458984	7186.164063
-242.500000	-1465.000000	1448.416016	7131.920410
-242.500000	-1465.000000	1447.372070	7034.586426
-242.500000	-1465.000000	1446.328125	7210.283691
-242.500000	-1465.000000	1445.284180	7112.973633
-242.500000	-1465.000000	1444.239258	7118.630371
-242.500000	-1465.000000	1443.194336	6880.187012
-242.500000	-1465.000000	1442.150391	6995.949219
-242.500000	-1465.000000	1441.104492	6848.532715
-242.500000	-1465.000000	1440.059570	6961.859863
-242.500000	-1465.000000	1439.013672	6852.769043
-242.500000	-1465.000000	1437.967773	6851.299805
-242.500000	-1465.000000	1436.921875	6687.307617
-242.500000	-1465.000000	1435.875977	6750.390137
-242.500000	-1465.000000	1434.829102	6713.106934
-242.500000	-1465.000000	1433.783203	6577.910645
-242.500000	-1465.000000	1432.735352	6476.203613
-242.500000	-1465.000000	1431.688477	6582.249023
-242.500000	-1465.000000	1430.641602	6564.127441
-242.500000	-1465.000000	1429.593750	6808.521484
-242.500000	-1465.000000	1428.545898	6809.444824
-242.500000	-1465.000000	1427.498047	6562.284180
-242.500000	-1465.000000	1426.449219	6746.896973
-242.500000	-1465.000000	1425.401367	6776.444336
-242.500000	-1465.000000	1424.352539	6729.694336
-242.500000	-1465.000000	1423.303711	6871.250000
-242.500000	-1465.000000	1422.253906	6814.966797
-242.500000	-1465.000000	1421.205078	6777.766602
-242.500000	-1465.000000	1420.155273	6785.835938
-242.500000	-1465.000000	1419.105469	6760.563477
-242.500000	-1465.000000	1418.055664	6828.152344
-242.500000	-1465.000000	1417.004883	6714.809082
-242.500000	-1465.000000	1415.955078	6589.615723
-242.500000	-1465.000000	1414.904297	6652.437500
-242.500000	-1465.000000	1413.852539	6857.957031
-242.500000	-1465.000000	1412.801758	6808.915527
-242.500000	-1465.000000	1411.750000	6805.071289
-242.500000	-1465.000000	1410.698242	6794.096680
-242.500000	-1465.000000	1409.646484	6942.365723
-242.500000	-1465.000000	1408.594727	6893.345703
-242.500000	-1465.000000	1407.541992	6927.495605
-242.500000	-1465.000000	1406.490234	7016.258789
-242.500000	-1465.000000	1405.437500	6855.643555
-242.500000	-1465.000000	1404.383789	6925.389648
-242.500000	-1465.000000	1403.331055	7059.193359
-242.500000	-1465.000000	1402.277344	6995.969238
-242.500000	-1465.000000	1401.223633	6916.163574
-242.500000	-1465.000000	1400.169922	6855.368652
-242.500000	-1465.000000	1399.115234	6861.003906
-242.500000	-1465.000000	1398.061523	6949.623535
-242.500000	-1465.000000	1397.006836	6846.188477
-242.500000	-1465.000000	1395.952148	6842.340332
-242.500000	-1465.000000	1394.896484	6826.645020
-242.500000	-1465.000000	1393.841797	6945.990234
-242.500000	-1465.000000	1392.786133	6939.752441
-242.500000	-1465.000000	1391.730469	6654.091797
-242.500000	-1465.000000	1390.673828	6749.720703
-242.500000	-1465.000000	1389.618164	6821.637695
-242.500000	-1465.000000	1388.561523	6787.031738
-242.500000	-1465.000000	1387.504883	6825.785156
-242.500000	-1465.000000	1386.448242	6772.268555
-242.500000	-1465.000000	1385.390625	6801.546875
-242.500000	-1465.000000	1384.333984	6899.380371
-242.500000	-1465.000000	1383.276367	6838.789063
-242.500000	-1465.000000	1382.217773	6877.486328
-242.500000	-1465.000000	1381.160156	6977.600586
-242.500000	-1465.000000	1380.101563	6905.218262
-242.500000	-1465.000000	1379.042969	6894.274414
-242.500000	-1465.000000	1377.984375	6885.696289
-242.500000	-1465.000000	1376.925781	6756.718750
-242.500000	-1465.000000	1375.866211	6880.351074
-242.500000	-1465.000000	1374.807617	6798.625488
-242.500000	-1465.000000	1373.747070	6825.462402
-242.500000	-1465.000000	1372.687500	6989.097168
-242.500000	-1465.000000	1371.627930	6751.752441
-242.500000	-1465.000000	1370.567383	6773.864746
-242.500000	-1465.000000	1369.506836	6814.825195
-242.500000	-1465.000000	1368.446289	6848.696289
-242.500000	-1465.000000	1367.384766	6816.578125
-242.500000	-1465.000000	1366.323242	6756.204102
-242.500000	-1465.000000	1365.261719	6688.790527
-242.500000	-1465.000000	1364.200195	6689.691406
-242.500000	-1465.000000	1363.138672	6692.945801
-242.500000	-1465.000000	1362.076172	6712.673828
-242.500000	-1465.000000	1361.013672	6807.693359
-242.500000	-1465.000000	1359.951172	6723.870117
-242.500000	-1465.000000	1358.888672	6837.661621
-242.500000	-1465.000000	1357.825195	6822.063965
-242.500000	-1465.000000	1356.761719	6707.725586
-242.500000	-1465.000000	1355.698242	6757.978516
-242.500000	-1465.000000	1354.634766	6866.960938
-242.500000	-1465.000000	1353.570313	6766.782715
-242.500000	-1465.000000	1352.506836	6941.488770
-242.500000	-1465.000000	1351.442383	6831.942383
-242.500000	-1465.000000	1350.376953	6886.806152
-242.500000	-1465.000000	1349.312500	6765.580566
-242.500000	-1465.000000	1348.247070	6989.418945
-242.500000	-1465.000000	1347.181641	6842.411133
-242.500000	-1465.000000	1346.116211	6969.947754
-242.500000	-1465.000000	1345.049805	6966.081543
-242.500000	-1465.000000	1343.984375	6943.456055
-242.500000	-1465.000000	1342.917969	6911.461914
-242.500000	-1465.000000	1341.851563	7008.398438
-242.500000	-1465.000000	1340.784180	6936.564453
-242.500000	-1465.000000	1339.716797	6993.622070
-242.500000	-1465.000000	1338.650391	6926.505859
-242.500000	-1465.000000	1337.582031	6985.881348
-242.500000	-1465.000000	1336.514648	6979.670898
-242.500000	-1465.000000	1335.446289	6966.439941
-242.500000	-1465.000000	1334.378906	7030.446289
-242.500000	-1465.000000	1333.310547	7124.841309
-242.500000	-1465.000000	1332.241211	6898.705566
-242.500000	-1465.000000	1331.172852	6943.971680
-242.500000	-1465.000000	1330.103516	7045.336914
-242.500000	-1465.000000	1329.034180	6980.673340
-242.500000	-1465.000000	1327.964844	7007.190918
-242.500000	-1465.000000	1326.894531	6991.634766
-242.500000	-1465.000000	1325.824219	7113.924316
-242.500000	-1465.000000	1324.753906	6890.467773
-242.500000	-1465.000000	1323.683594	7064.099609
-242.500000	-1465.000000	1322.612305	6997.177734
-242.500000	-1465.000000	1321.541992	7091.344727
-242.500000	-1465.000000	1320.470703	7110.791992
-242.500000	-1465.000000	1319.399414	6929.575195
-242.500000	-1465.000000	1318.327148	7061.015625
-242.500000	-1465.000000	1317.254883	7078.122070
-242.500000	-1465.000000	1316.182617	7092.888184
-242.500000	-1465.000000	1315.110352	6988.759277
-242.500000	-1465.000000	1314.038086	6998.875977
-242.500000	-1465.000000	1312.964844	7069.570801
-242.500000	-1465.000000	1311.891602	7049.378906
-242.500000	-1465.000000	1310.818359	6936.031250
-242.500000	-1465.000000	1309.745117	7195.305664
-242.500000	-1465.000000	1308.670898	7105.255371
-242.500000	-1465.000000	1307.596680	7089.725586
-242.500000	-1465.000000	1306.522461	7157.975098
-242.500000	-1465.000000	1305.448242	7049.377930
-242.500000	-1465.000000	1304.373047	7122.256836
-242.500000	-1465.000000	1303.297852	7106.733887
-242.500000	-1465.000000	1302.222656	7160.966309
-242.500000	-1465.000000	1301.147461	7126.844238
-242.500000	-1465.000000	1300.071289	7092.736328
-242.500000	-1465.000000	1298.996094	7005.203613
-242.500000	-1465.000000	1297.919922	7298.670410
-242.500000	-1465.000000	1296.842773	7192.549805
-242.500000	-1465.000000	1295.766602	7221.145996
-242.500000	-1465.000000	1294.689453	7272.942871
-242.500000	-1465.000000	1293.612305	7115.835938
-242.500000	-1465.000000	1292.535156	7320.776367
-242.500000	-1465.000000	1291.457031	7340.036133
-242.500000	-1465.000000	1290.378906	7303.622559
-242.500000	-1465.000000	1289.300781	7318.238281
-242.500000	-1465.000000	1288.222656	7265.615723
-242.500000	-1465.000000	1287.144531	7377.580078
-242.500000	-1465.000000	1286.065430	7308.744629
-242.500000	-1465.000000	1284.986328	7443.815918
-242.500000	-1465.000000	1283.907227	7368.045898
-242.500000	-1465.000000	1282.827148	7266.835938
-242.500000	-1465.000000	1281.748047	7524.531738
-242.500000	-1465.000000	1280.667969	7518.233398
-242.500000	-1465.000000	1279.586914	7479.538574
-242.500000	-1465.000000	1278.506836	7519.525391
-242.500000	-1465.000000	1277.425781	7478.532227
-242.500000	-1465.000000	1276.344727	7493.060547
-242.500000	-1465.000000	1275.263672	7489.084473
-242.500000	-1465.000000	1274.182617	7420.382813
-242.500000	-1465.000000	1273.100586	7675.269531
-242.500000	-1465.000000	1272.018555	7456.365234
-242.500000	-1465.000000	1270.936523	7556.352051
-242.500000	-1465.000000	1269.853516	7547.742676
-242.500000	-1465.000000	1268.771484	7643.044434
-242.500000	-1465.000000	1267.688477	7579.012207
-242.500000	-1465.000000	1266.605469	7575.017090
-242.500000	-1465.000000	1265.521484	7674.861816
-242.500000	-1465.000000	1264.438477	7636.239746
-242.500000	-1465.000000	1263.354492	7623.005371
-242.500000	-1465.000000	1262.270508	7547.514648
-242.500000	-1465.000000	1261.185547	7640.356445
-242.500000	-1465.000000	1260.101563	7615.602539
-242.500000	-1465.000000	1259.016602	7673.819336
-242.500000	-1465.000000	1257.930664	7674.410645
-242.500000	-1465.000000	1256.845703	7525.278320
-242.500000	-1465.000000	1255.759766	7606.502441
-242.500000	-1465.000000	1254.674805	7805.111816
-242.500000	-1465.000000	1253.587891	7761.933594
-242.500000	-1465.000000	1252.501953	7826.938477
-242.500000	-1465.000000	1251.415039	7795.277344
-242.500000	-1465.000000	1250.329102	7795.833984
-242.500000	-1465.000000	1249.241211	7780.291016
-242.500000	-1465.000000	1248.154297	7872.821289
-242.500000	-1465.000000	1247.066406	7923.931152
-242.500000	-1465.000000	1245.979492	7949.735840
-242.500000	-1465.000000	1244.890625	7837.662109
-242.500000	-1465.000000	1243.802734	7861.175781
-242.500000	-1465.000000	1242.713867	7827.259277
-242.500000	-1465.000000	1241.625000	7864.539551
-242.500000	-1465.000000	1240.536133	7690.598145
-242.500000	-1465.000000	1239.447266	7959.704102
-242.500000	-1465.000000	1238.357422	7813.353516
-242.500000	-1465.000000	1237.267578	7692.303223
-242.500000	-1465.000000	1236.177734	7809.844727
-242.500000	-1465.000000	1235.087891	7755.348145
-242.500000	-1465.000000	1233.997070	7645.852539
-242.500000	-1465.000000	1232.906250	7673.930664
-242.500000	-1465.000000	1231.815430	7628.665039
-242.500000	-1465.000000	1230.724609	7507.813477
-242.500000	-1465.000000	1229.632813	7728.306641
-242.500000	-1465.000000	1228.541016	7550.234375
-242.500000	-1465.000000	1227.449219	7491.296387
-242.500000	-1465.000000	1226.357422	7528.521973
-242.500000	-1465.000000	1225.264648	7572.594727
-242.500000	-1465.000000	1224.171875	7561.735840
-242.500000	-1465.000000	1223.079102	7482.257324
-242.500000	-1465.000000	1221.986328	7578.907715
-242.500000	-1465.000000	1220.892578	7481.167969
-242.500000	-1465.000000	1219.798828	7490.908691
-242.500000	-1465.000000	1218.705078	7363.520996
-242.500000	-1465.000000	1217.611328	7425.833984
-242.500000	-1465.000000	1216.516602	7415.018555
-242.500000	-1465.000000	1215.421875	7534.386230
-242.500000	-1465.000000	1214.327148	7322.616699
-242.500000	-1465.000000	1213.231445	7508.150879
-242.500000	-1465.000000	1212.136719	7568.073730
-242.500000	-1465.000000	1211.041016	7472.808105
-242.500000	-1465.000000	1209.945313	7500.772461
-242.500000	-1465.000000	1208.848633	7515.038574
-242.500000	-1465.000000	1207.752930	7570.341309
-242.500000	-1465.000000	1206.656250	7570.905273
-242.500000	-1465.000000	1205.558594	7564.629883
-242.500000	-1465.000000	1204.461914	7583.422363
-242.500000	-1465.000000	1203.364258	7652.324219
-242.500000	-1465.000000	1202.266602	7525.317383
-242.500000	-1465.000000	1201.168945	7642.019043
-242.500000	-1465.000000	1200.071289	7567.431641
-242.500000	-1465.000000	1198.972656	7558.884277
-242.500000	-1465.000000	1197.874023	7432.009766
-242.500000	-1465.000000	1196.775391	7548.622559
-242.500000	-1465.000000	1195.675781	7515.062012
-242.500000	-1465.000000	1194.576172	7567.928223
-242.500000	-1465.000000	1193.476563	7550.291016
-242.500000	-1465.000000	1192.376953	7441.741699
-242.500000	-1465.000000	1191.276367	7367.328125
-242.500000	-1465.000000	1190.176758	7624.650879
-242.500000	-1465.000000	1189.076172	7588.841309
-242.500000	-1465.000000	1187.974609	7500.816406
-242.500000	-1465.000000	1186.874023	7585.380371
-242.500000	-1465.000000	1185.772461	7449.726563
-242.500000	-1465.000000	1184.670898	7552.416504
-242.500000	-1465.000000	1183.569336	7664.133789
-242.500000	-1465.000000	1182.466797	7680.529297
-242.500000	-1465.000000	1181.364258	7925.964355
-242.500000	-1465.000000	1180.261719	7568.188965
-242.500000	-1465.000000	1179.159180	7704.730957
-242.500000	-1465.000000	1178.055664	7641.779297
-242.500000	-1465.000000	1176.952148	7701.205078
-242.500000	-1465.000000	1175.848633	7665.463867
-242.500000	-1465.000000	1174.745117	7856.206543
-242.500000	-1465.000000	1173.640625	7655.159668
-242.500000	-1465.000000	1172.536133	7700.941895
-242.500000	-1465.000000	1171.431641	7493.230957
-242.500000	-1465.000000	1170.326172	7772.076172
-242.500000	-1465.000000	1169.221680	7611.946289
-242.500000	-1465.000000	1168.116211	7673.522949
-242.500000	-1465.000000	1167.010742	7746.375488
-242.500000	-1465.000000	1165.904297	7864.404785
-242.500000	-1465.000000	1164.797852	7715.696289
-242.500000	-1465.000000	1163.691406	7772.669434
-242.500000	-1465.000000	1162.584961	7820.579102
-242.500000	-1465.000000	1161.478516	7814.263184
-242.500000	-1465.000000	1160.371094	7776.337891
-242.500000	-1465.000000	1159.263672	7709.082031
-242.500000	-1465.000000	1158.155273	7777.270508
-242.500000	-1465.000000	1157.047852	7694.248535
-242.500000	-1465.000000	1155.939453	7793.988770
-242.500000	-1465.000000	1154.831055	7645.594727
-242.500000	-1465.000000	1153.722656	7806.177734
-242.500000	-1465.000000	1152.613281	7696.169922
-242.500000	-1465.000000	1151.503906	7734.961426
-242.500000	-1465.000000	1150.394531	7748.947754
-242.500000	-1465.000000	1149.285156	7792.211914
-242.500000	-1465.000000	1148.174805	7873.743164
-242.500000	-1465.000000	1147.064453	7703.045410
-242.500000	-1465.000000	1145.954102	7807.068848
-242.500000	-1465.000000	1144.842773	7895.288574
-242.500000	-1465.000000	1143.732422	7821.456543
-242.500000	-1465.000000	1142.621094	7788.150879
-242.500000	-1465.000000	1141.508789	7840.324707
-242.500000	-1465.000000	1140.397461	7732.824707
-242.500000	-1465.000000	1139.285156	7686.071289
-242.500000	-1465.000000	1138.172852	7614.615234
-242.500000	-1465.000000	1137.060547	7693.740234
-242.500000	-1465.000000	1135.947266	7611.081055
-242.500000	-1465.000000	1134.834961	7802.466309
-242.500000	-1465.000000	1133.720703	7805.144531
-242.500000	-1465.000000	1132.607422	7780.881836
-242.500000	-1465.000000	1131.493164	7907.003418
-242.500000	-1465.000000	1130.379883	7846.823730
-242.500000	-1465.000000	1129.264648	7905.568359
-242.500000	-1465.000000	1128.150391	7903.728027
-242.500000	-1465.000000	1127.035156	7935.522461
-242.500000	-1465.000000	1125.919922	7985.234863
-242.500000	-1465.000000	1124.804688	8019.233887
-242.500000	-1465.000000	1123.689453	7831.382813
-242.500000	-1465.000000	1122.573242	7840.757324
-242.500000	-1465.000000	1121.457031	7711.265625
-242.500000	-1465.000000	1120.340820	7910.990723
-242.500000	-1465.000000	1119.223633	7960.632324
-242.500000	-1465.000000	1118.106445	7815.532715
-242.500000	-1465.000000	1116.989258	7887.547363
-242.500000	-1465.000000	1115.872070	7977.423340
-242.500000	-1465.000000	1114.753906	7821.234863
-242.500000	-1465.000000	1113.635742	7993.815430
-242.500000	-1465.000000	1112.517578	8083.600098
-242.500000	-1465.000000	1111.399414	8121.937012
-242.500000	-1465.000000	1110.280273	8140.144043
-242.500000	-1465.000000	1109.161133	8140.470215
-242.500000	-1465.000000	1108.041992	8151.961914
-242.500000	-1465.000000	1106.921875	8143.351074
-242.500000	-1465.000000	1105.802734	8232.967773
-242.500000	-1465.000000	1104.682617	8179.702148
-242.500000	-1465.000000	1103.561523	8327.279297
-242.500000	-1465.000000	1102.441406	8271.784180
-242.500000	-1465.000000	1101.320313	8323.366211
-242.500000	-1465.000000	1100.199219	8408.369141
-242.500000	-1465.000000	1099.077148	8268.179688
-242.500000	-1465.000000	1097.956055	8328.636719
-242.500000	-1465.000000	1096.833984	8268.743164
-242.500000	-1465.000000	1095.711914	8433.869141
-242.500000	-1465.000000	1094.588867	8478.651367
-242.500000	-1465.000000	1093.465820	8469.973633
-242.500000	-1465.000000	1092.342773	8463.523438
-242.500000	-1465.000000	1091.219727	8557.225586
-242.500000	-1465.000000	1090.096680	8626.406250
-242.500000	-1465.000000	1088.972656	8582.103516
-242.500000	-1465.000000	1087.848633	8555.612305
-242.500000	-1465.000000	1086.723633	8749.253906
-242.500000	-1465.000000	1085.599609	8900.566406
-242.500000	-1465.000000	1084.474609	8802.898438
-242.500000	-1465.000000	1083.349609	9018.558594
-242.500000	-1465.000000	1082.223633	9085.285156
-242.500000	-1465.000000	1081.097656	9052.041992
-242.500000	-1465.000000	1079.971680	9163.131836
-242.500000	-1465.000000	1078.845703	9147.641602
-242.500000	-1465.000000	1077.719727	9316.353516
-242.500000	-1465.000000	1076.592773	9458.359375
-242.500000	-1465.000000	1075.465820	9609.168945
-242.500000	-1465.000000	1074.337891	9449.433594
-242.500000	-1465.000000	1073.210938	9600.170898
-242.500000	-1465.000000	1072.083008	9580.157227
-242.500000	-1465.000000	1070.954102	9633.281250
-242.500000	-1465.000000	1069.826172	9522.427734
-242.500000	-1465.000000	1068.697266	9602.118164
-242.500000	-1465.000000	1067.568359	9579.901367
-242.500000	-1465.000000	1066.439453	9435.926758
-242.500000	-1465.000000	1065.309570	9422.611328
-242.500000	-1465.000000	1064.180664	9334.061523
-242.500000	-1465.000000	1063.049805	9322.986328
-242.500000	-1465.000000	1061.919922	9241.134766
-242.500000	-1465.000000	1060.789063	9086.347656
-242.500000	-1465.000000	1059.658203	8927.210938
-242.500000	-1465.000000	1058.527344	8986.966797
-242.500000	-1465.000000	1057.396484	8867.702148
-242.500000	-1465.000000	1056.264648	8991.506836
-242.500000	-1465.000000	1055.132813	8848.000977
-242.500000	-1465.000000	1054.000000	8814.968750
-242.500000	-1465.000000	1052.868164	8799.613281
-242.500000	-1465.000000	1051.735352	8912.274414
-242.500000	-1465.000000	1050.602539	8707.134766
-242.500000	-1465.000000	1049.468750	8828.585938
-242.500000	-1465.000000	1048.335938	8780.152344
-242.500000	-1465.000000	1047.202148	8903.729492
-242.500000	-1465.000000	1046.067383	9018.428711
-242.500000	-1465.000000	1044.933594	8767.219727
-242.500000	-1465.000000	1043.798828	8859.859375
-242.500000	-1465.000000	1042.664063	8996.509766
-242.500000	-1465.000000	1041.528320	8937.085938
-242.500000	-1465.000000	1040.393555	9047.228516
-242.500000	-1465.000000	1039.257813	9034.043945
-242.500000	-1465.000000	1038.122070	9177.118164
-242.500000	-1465.000000	1036.985352	9188.108398
-242.500000	-1465.000000	1035.848633	9146.299805
-242.500000	-1465.000000	1034.711914	9106.708984
-242.500000	-1465.000000	1033.575195	9122.101563
-242.500000	-1465.000000	1032.437500	9207.824219
-242.500000	-1465.000000	1031.299805	9258.341797
-242.500000	-1465.000000	1030.162109	9306.637695
-242.500000	-1465.000000	1029.023438	9032.022461
-242.500000	-1465.000000	1027.885742	9137.441406
-242.500000	-1465.000000	1026.747070	9154.990234
-242.500000	-1465.000000	1025.607422	9130.826172
-242.500000	-1465.000000	1024.468750	8955.259766
-242.500000	-1465.000000	1023.329102	9040.843750
-242.500000	-1465.000000	1022.189453	8999.173828
-242.500000	-1465.000000	1021.048828	9043.041016
-242.500000	-1465.000000	1019.908203	8924.658203
-242.500000	-1465.000000	1018.767578	9100.021484
-242.500000	-1465.000000	1017.626953	9023.312500
-242.500000	-1465.000000	1016.485352	8898.444336
-242.500000	-1465.000000	1015.344727	8907.232422
-242.500000	-1465.000000	1014.202148	8791.208984
-242.500000	-1465.000000	1013.060547	8896.334961
-242.500000	-1465.000000	1011.917969	8727.841797
-242.500000	-1465.000000	1010.775391	8800.109375
-242.500000	-1465.000000	1009.632813	8957.650391
-242.500000	-1465.000000	1008.489258	9023.262695
-242.500000	-1465.000000	1007.345703	9029.809570
-242.500000	-1465.000000	1006.202148	9209.033203
-242.500000	-1465.000000	1005.058594	9523.659180
-242.500000	-1465.000000	1003.914063	9643.682617
-242.500000	-1465.000000	1002.769531	9986.441406
-242.500000	-1465.000000	1001.625000	9693.565430
-242.500000	-1465.000000	1000.479492	9267.656250
-242.500000	-1465.000000	999.333984	9254.476563
-242.500000	-1465.000000	998.188477	9132.196289
-242.500000	-1465.000000	997.042969	9151.776367
-242.500000	-1465.000000	995.896484	8990.318359
-242.500000	-1465.000000	994.750000	9129.849609
-242.500000	-1465.000000	993.603516	9195.191406
-242.500000	-1465.000000	992.456055	8955.375977
-242.500000	-1465.000000	991.308594	9066.482422
-242.500000	-1465.000000	990.161133	8988.013672
-242.500000	-1465.000000	989.012695	9011.940430
-242.500000	-1465.000000	987.865234	9009.726563
-242.500000	-1465.000000	986.716797	9223.012695
-242.500000	-1465.000000	985.567383	9190.277344
-242.500000	-1465.000000	984.418945	9275.043945
-242.500000	-1465.000000	983.269531	9205.331055
-242.500000	-1465.000000	982.119141	9348.764648
-242.500000	-1465.000000	980.969727	9294.282227
-242.500000	-1465.000000	979.819336	9426.752930
-242.500000	-1465.000000	978.668945	9578.712891
-242.500000	-1465.000000	977.518555	9632.833984
-242.500000	-1465.000000	976.367188	9862.855469
-242.500000	-1465.000000	975.215820	10220.875977
-242.500000	-1465.000000	974.064453	10257.426758
-242.500000	-1465.000000	972.912109	10895.142578
-242.500000	-1465.000000	971.760742	11296.033203
-242.500000	-1465.000000	970.607422	11761.800781
-242.500000	-1465.000000	969.455078	12268.542969
-242.500000	-1465.000000	968.301758	13126.279297
-242.500000	-1465.000000	967.148438	13886.043945
-242.500000	-1465.000000	965.995117	14777.624023
-242.500000	-1465.000000	964.840820	15566.929688
-242.500000	-1465.000000	963.687500	16630.929688
-242.500000	-1465.000000	962.532227	17254.798828
-242.500000	-1465.000000	961.377930	17510.308594
-242.500000	-1465.000000	960.222656	17884.734375
-242.500000	-1465.000000	959.067383	18116.152344
-242.500000	-1465.000000	957.912109	17629.216797
-242.500000	-1465.000000	956.755859	17053.845703
-242.500000	-1465.000000	955.599609	16524.164063
-242.500000	-1465.000000	954.443359	15685.614258
-242.500000	-1465.000000	953.286133	14879.898438
-242.500000	-1465.000000	952.129883	14115.633789
-242.500000	-1465.000000	950.972656	13518.077148
-242.500000	-1465.000000	949.814453	13091.423828
-242.500000	-1465.000000	948.656250	12654.186523
-242.500000	-1465.000000	947.498047	12210.688477
-242.500000	-1465.000000	946.339844	11629.300781
-242.500000	-1465.000000	945.180664	11201.378906
-242.500000	-1465.000000	944.022461	10969.946289
-242.500000	-1465.000000	942.862305	10803.317383
-242.500000	-1465.000000	941.703125	10867.442383
-242.500000	-1465.000000	940.542969	10476.770508
-242.500000	-1465.000000	939.382813	10418.121094
-242.500000	-1465.000000	938.222656	10223.785156
-242.500000	-1465.000000	937.061523	10132.919922
-242.500000	-1465.000000	935.900391	10093.773438
-242.500000	-1465.000000	934.739258	9809.251953
-242.500000	-1465.000000	933.577148	9703.489258
-242.500000	-1465.000000	932.415039	9630.050781
-242.500000	-1465.000000	931.252930	9649.137695
-242.500000	-1465.000000	930.090820	9494.031250
-242.500000	-1465.000000	928.927734	9504.540039
-242.500000	-1465.000000	927.764648	9371.037109
-242.500000	-1465.000000	926.600586	9241.897461
-242.500000	-1465.000000	925.437500	9439.352539
-242.500000	-1465.000000	924.273438	9282.337891
-242.500000	-1465.000000	923.108398	9260.669922
-242.500000	-1465.000000	921.944336	9354.928711
-242.500000	-1465.000000	920.779297	9275.306641
-242.500000	-1465.000000	919.614258	9393.112305
-242.500000	-1465.000000	918.448242	9144.063477
-242.500000	-1465.000000	917.283203	9186.783203
-242.500000	-1465.000000	916.116211	9343.105469
-242.500000	-1465.000000	914.950195	9130.690430
-242.500000	-1465.000000	913.783203	9186.232422
-242.500000	-1465.000000	912.616211	9278.163086
-242.500000	-1465.000000	911.449219	9230.833984
-242.500000	-1465.000000	910.282227	9147.125977
-242.500000	-1465.000000	909.114258	8990.677734
-242.500000	-1465.000000	907.945313	8973.413086
-242.500000	-1465.000000	906.777344	9033.179688
-242.500000	-1465.000000	905.608398	9092.913086
-242.500000	-1465.000000	904.439453	8857.507813
-242.500000	-1465.000000	903.270508	9173.802734
-242.500000	-1465.000000	902.100586	9109.482422
-242.500000	-1465.000000	900.930664	9030.235352
-242.500000	-1465.000000	899.759766	9021.524414
-242.500000	-1465.000000	898.589844	9032.038086
-242.500000	-1465.000000	897.418945	9040.409180
-242.500000	-1465.000000	896.248047	8993.273438
-242.500000	-1465.000000	895.076172	9061.401367
-242.500000	-1465.000000	893.904297	9097.490234
-242.500000	-1465.000000	892.732422	8877.596680
-242.500000	-1465.000000	891.559570	9141.883789
-242.500000	-1465.000000	890.387695	8986.045898
-242.500000	-1465.000000	889.214844	8904.883789
-242.500000	-1465.000000	888.041016	9079.460938
-242.500000	-1465.000000	886.867188	9008.963867
-242.500000	-1465.000000	885.693359	9070.545898
-242.500000	-1465.000000	884.519531	9155.515625
-242.500000	-1465.000000	883.344727	9025.446289
-242.500000	-1465.000000	882.169922	9325.317383
-242.500000	-1465.000000	880.995117	9133.569336
-242.500000	-1465.000000	879.820313	9216.300781
-242.500000	-1465.000000	878.644531	9220.309570
-242.500000	-1465.000000	877.468750	9241.321289
-242.500000	-1465.000000	876.291992	9292.075195
-242.500000	-1465.000000	875.115234	9155.818359
-242.500000	-1465.000000	873.938477	9193.819336
-242.500000	-1465.000000	872.761719	9178.706055
-242.500000	-1465.000000	871.583984	9184.830078
-242.500000	-1465.000000	870.406250	9086.940430
-242.500000	-1465.000000	869.228516	9182.208984
-242.500000	-1465.000000	868.049805	9198.929688
-242.500000	-1465.000000	866.871094	9160.494141
-242.500000	-1465.000000	865.692383	9289.591797
-242.500000	-1465.000000	864.512695	9291.426758
-242.500000	-1465.000000	863.333008	9187.292969
-242.500000	-1465.000000	862.153320	9305.682617
-242.500000	-1465.000000	860.972656	9381.645508
-242.500000	-1465.000000	859.791992	9387.682617
-242.500000	-1465.000000	858.611328	9548.265625
-242.500000	-1465.000000	857.430664	9359.527344
-242.500000	-1465.000000	856.249023	9450.202148
-242.500000	-1465.000000	855.067383	9481.593750
-242.500000	-1465.000000	853.884766	9352.232422
-242.500000	-1465.000000	852.703125	9459.747070
-242.500000	-1465.000000	851.519531	9322.000000
-242.500000	-1465.000000	850.336914	9328.025391
-242.500000	-1465.000000	849.153320	9536.867188
-242.500000	-1465.000000	847.969727	9405.538086
-242.500000	-1465.000000	846.786133	9407.308594
-242.500000	-1465.000000	845.601563	9453.408203
-242.500000	-1465.000000	844.416992	9267.324219
-242.500000	-1465.000000	843.232422	9338.752930
-242.500000	-1465.000000	842.046875	9260.372070
-242.500000	-1465.000000	840.862305	9266.386719
-242.500000	-1465.000000	839.675781	9394.677734
-242.500000	-1465.000000	838.490234	9364.817383
-242.500000	-1465.000000	837.303711	9467.725586
-242.500000	-1465.000000	836.117188	9490.524414
-242.500000	-1465.000000	834.929688	9460.657227
-242.500000	-1465.000000	833.742188	9397.114258
-242.500000	-1465.000000	832.554688	9552.523438
-242.500000	-1465.000000	831.367188	9589.999023
-242.500000	-1465.000000	830.178711	9259.271484
-242.500000	-1465.000000	828.990234	9458.758789
-242.500000	-1465.000000	827.800781	9294.356445
-242.500000	-1465.000000	826.612305	9203.616211
-242.500000	-1465.000000	825.422852	9150.752930
-242.500000	-1465.000000	824.232422	9076.903320
-242.500000	-1465.000000	823.042969	9089.215820
-242.500000	-1465.000000	821.851563	9154.019531
-242.500000	-1465.000000	820.661133	9063.426758
-242.500000	-1465.000000	819.469727	9186.969727
-242.500000	-1465.000000	818.278320	9337.723633
-242.500000	-1465.000000	817.086914	9343.647461
-242.500000	-1465.000000	815.895508	9399.900391
-242.500000	-1465.000000	814.703125	9403.704102
-242.500000	-1465.000000	813.509766	9443.138672
-242.500000	-1465.000000	812.317383	9484.645508
-242.500000	-1465.000000	811.124023	9448.612305
-242.500000	-1465.000000	809.929688	9571.776367
-242.500000	-1465.000000	808.736328	9408.005859
-242.500000	-1465.000000	807.541992	9271.534180
-242.500000	-1465.000000	806.347656	9107.925781
-242.500000	-1465.000000	805.152344	9069.938477
-242.500000	-1465.000000	803.957031	9105.178711
-242.500000	-1465.000000	802.761719	8983.561523
-242.500000	-1465.000000	801.566406	9056.432617
-242.500000	-1465.000000	800.370117	8924.440430
-242.500000	-1465.000000	799.172852	8907.437500
-242.500000	-1465.000000	797.976563	8953.108398
-242.500000	-1465.000000	796.779297	8741.885742
-242.500000	-1465.000000	795.582031	8881.524414
-242.500000	-1465.000000	794.383789	8948.033203
-242.500000	-1465.000000	793.186523	8970.684570
-242.500000	-1465.000000	791.987305	8928.651367
-242.500000	-1465.000000	790.789063	8940.863281
-242.500000	-1465.000000	789.589844	8682.014648
-242.500000	-1465.000000	788.390625	9021.542969
-242.500000	-1465.000000	787.191406	8956.610352
-242.500000	-1465.000000	785.991211	9006.294922
-242.500000	-1465.000000	784.791016	9010.129883
-242.500000	-1465.000000	783.589844	9074.344727
-242.500000	-1465.000000	782.388672	8959.500000
-242.500000	-1465.000000	781.187500	8984.149414
-242.500000	-1465.000000	779.986328	8834.016602
-242.500000	-1465.000000	778.784180	9010.522461
-242.500000	-1465.000000	777.582031	8897.889648
-242.500000	-1465.000000	776.379883	9101.304688
-242.500000	-1465.000000	775.176758	9044.818359
-242.500000	-1465.000000	773.973633	8953.039063
-242.500000	-1465.000000	772.769531	8919.469727
-242.500000	-1465.000000	771.566406	8941.984375
-242.500000	-1465.000000	770.361328	8864.833984
-242.500000	-1465.000000	769.157227	8924.707031
-242.500000	-1465.000000	767.952148	8916.072266
-242.500000	-1465.000000	766.747070	8994.564453
-242.500000	-1465.000000	765.541992	8875.999023
-242.500000	-1465.000000	764.335938	8958.602539
-242.500000	-1465.000000	763.129883	9005.922852
-242.500000	-1465.000000	761.922852	8930.959961
-242.500000	-1465.000000	760.716797	8930.612305
-242.500000	-1465.000000	759.509766	8899.197266
-242.500000	-1465.000000	758.301758	9023.082031
-242.500000	-1465.000000	757.093750	8944.047852
-242.500000	-1465.000000	755.885742	8774.002930
-242.500000	-1465.000000	754.677734	8906.090820
-242.500000	-1465.000000	753.468750	9015.354492
-242.500000	-1465.000000	752.259766	9014.970703
-242.500000	-1465.000000	751.049805	8938.102539
-242.500000	-1465.000000	749.840820	8888.139648
-242.500000	-1465.000000	748.629883	9050.996094
-242.500000	-1465.000000	747.419922	8872.970703
-242.500000	-1465.000000	746.208984	8963.469727
-242.500000	-1465.000000	744.998047	9039.466797
-242.500000	-1465.000000	743.787109	9043.191406
-242.500000	-1465.000000	742.575195	8904.553711
-242.500000	-1465.000000	741.363281	8871.182617
-242.500000	-1465.000000	740.150391	8854.323242
-242.500000	-1465.000000	738.937500	8889.007813
-242.500000	-1465.000000	737.724609	8853.600586
-242.500000	-1465.000000	736.511719	8956.252930
-242.500000	-1465.000000	735.297852	8875.528320
-242.500000	-1465.000000	734.083984	8893.687500
-242.500000	-1465.000000	732.869141	9053.880859
-242.500000	-1465.000000	731.654297	8874.402344
-242.500000	-1465.000000	730.439453	8876.081055
-242.500000	-1465.000000	729.223633	9087.564453
-242.500000	-1465.000000	728.007813	9045.996094
-242.500000	-1465.000000	726.791992	8922.215820
-242.500000	-1465.000000	725.576172	8816.999023
-242.500000	-1465.000000	724.359375	8958.399414
-242.500000	-1565.000000	1819.745117	2841.157471
-242.500000	-1565.000000	1818.780273	2786.719238
-242.500000	-1565.000000	1817.815430	2915.696045
-242.500000	-1565.000000	1816.850586	2894.329102
-242.500000	-1565.000000	1815.885742	2769.347656
-242.500000	-1565.000000	1814.920898	2817.953125
-242.500000	-1565.000000	1813.955078	2913.147461
-242.500000	-1565.000000	1812.989258	2915.099854
-242.500000	-1565.000000	1812.023438	2955.876465
-242.500000	-1565.000000	1811.057617	2957.818848
-242.500000	-1565.000000	1810.091797	2995.981201
-242.500000	-1565.000000	1809.125000	2928.074707
-242.500000	-1565.000000	1808.158203	3020.534668
-242.500000	-1565.000000	1807.191406	3061.243896
-242.500000	-1565.000000	1806.223633	3039.896729
-242.500000	-1565.000000	1805.256836	2951.364990
-242.500000	-1565.000000	1804.289063	2896.461426
-242.500000	-1565.000000	1803.321289	2991.410889
-242.500000	-1565.000000	1802.353516	3063.074463
-242.500000	-1565.000000	1801.384766	2959.122070
-242.500000	-1565.000000	1800.416992	2961.059326
-242.500000	-1565.000000	1799.448242	2978.481689
-242.500000	-1565.000000	1798.479492	2957.189941
-242.500000	-1565.000000	1797.510742	2979.765381
-242.500000	-1565.000000	1796.541016	2888.840820
-242.500000	-1565.000000	1795.571289	3060.989502
-242.500000	-1565.000000	1794.601563	2967.508789
-242.500000	-1565.000000	1793.631836	2966.863525
-242.500000	-1565.000000	1792.662109	3030.645752
-242.500000	-1565.000000	1791.691406	2957.844727
-242.500000	-1565.000000	1790.721680	3029.329102
-242.500000	-1565.000000	1789.750977	2984.889404
-242.500000	-1565.000000	1788.779297	3056.336670
-242.500000	-1565.000000	1787.808594	3014.484863
-242.500000	-1565.000000	1786.836914	2998.388184
-242.500000	-1565.000000	1785.865234	3010.603271
-242.500000	-1565.000000	1784.893555	3004.804932
-242.500000	-1565.000000	1783.921875	3125.039551
-242.500000	-1565.000000	1782.949219	3044.645752
-242.500000	-1565.000000	1781.977539	3128.826416
-242.500000	-1565.000000	1781.004883	3117.866943
-242.500000	-1565.000000	1780.031250	3024.677734
-242.500000	-1565.000000	1779.058594	3072.838379
-242.500000	-1565.000000	1778.084961	3087.585205
-242.500000	-1565.000000	1777.112305	3020.144531
-242.500000	-1565.000000	1776.138672	2850.029541
-242.500000	-1565.000000	1775.164063	3121.518555
-242.500000	-1565.000000	1774.190430	3154.207275
-242.500000	-1565.000000	1773.215820	3079.113037
-242.500000	-1565.000000	1772.241211	3140.015869
-242.500000	-1565.000000	1771.266602	3090.605225
-242.500000	-1565.000000	1770.291992	3113.015137
-242.500000	-1565.000000	1769.316406	3140.542969
-242.500000	-1565.000000	1768.340820	3075.785400
-242.500000	-1565.000000	1767.365234	3228.876709
-242.500000	-1565.000000	1766.389648	3233.303223
-242.500000	-1565.000000	1765.414063	3206.989990
-242.500000	-1565.000000	1764.437500	3075.689209
-242.500000	-1565.000000	1763.460938	3156.957520
-242.500000	-1565.000000	1762.484375	3189.553955
-242.500000	-1565.000000	1761.507813	3186.306152
-242.500000	-1565.000000	1760.531250	3160.031250
-242.500000	-1565.000000	1759.553711	3205.396729
-242.500000	-1565.000000	1758.576172	3125.418945
-242.500000	-1565.000000	1757.598633	3178.443359
-242.500000	-1565.000000	1756.620117	3295.358154
-242.500000	-1565.000000	1755.642578	3148.957275
-242.500000	-1565.000000	1754.664063	3281.160645
-242.500000	-1565.000000	1753.685547	3267.679199
-242.500000	-1565.000000	1752.707031	3233.768799
-242.500000	-1565.000000	1751.727539	3156.459229
-242.500000	-1565.000000	1750.749023	3240.035645
-242.500000	-1565.000000	1749.769531	3259.759277
-242.500000	-1565.000000	1748.790039	3279.474365
-242.500000	-1565.000000	1747.809570	3253.252686
-242.500000	-1565.000000	1746.830078	3265.307617
-242.500000	-1565.000000	1745.849609	3162.586182
-242.500000	-1565.000000	1744.869141	3320.000977
-242.500000	-1565.000000	1743.888672	3324.385742
-242.500000	-1565.000000	1742.908203	3229.364014
-242.500000	-1565.000000	1741.926758	3261.797363
-242.500000	-1565.000000	1740.945313	3276.382568
-242.500000	-1565.000000	1739.963867	3265.489502
-242.500000	-1565.000000	1738.982422	3374.292969
-242.500000	-1565.000000	1738.000000	3467.773193
-242.500000	-1565.000000	1737.018555	3377.934326
-242.500000	-1565.000000	1736.036133	3445.923584
-242.500000	-1565.000000	1735.053711	3417.194580
-242.500000	-1565.000000	1734.070313	3525.848633
-242.500000	-1565.000000	1733.087891	3349.600098
-242.500000	-1565.000000	1732.104492	3422.622559
-242.500000	-1565.000000	1731.121094	3360.873535
-242.500000	-1565.000000	1730.137695	3609.240723
-242.500000	-1565.000000	1729.154297	3611.007568
-242.500000	-1565.000000	1728.169922	3663.586182
-242.500000	-1565.000000	1727.185547	3594.218262
-242.500000	-1565.000000	1726.201172	3603.605469
-242.500000	-1565.000000	1725.216797	3544.436035
-242.500000	-1565.000000	1724.231445	3673.137207
-242.500000	-1565.000000	1723.247070	3639.356934
-242.500000	-1565.000000	1722.261719	3552.306641
-242.500000	-1565.000000	1721.276367	3635.260498
-242.500000	-1565.000000	1720.290039	3690.279785
-242.500000	-1565.000000	1719.304688	3785.846924
-242.500000	-1565.000000	1718.318359	3599.967285
-242.500000	-1565.000000	1717.332031	3703.116943
-242.500000	-1565.000000	1716.345703	3623.766846
-242.500000	-1565.000000	1715.358398	3653.393555
-242.500000	-1565.000000	1714.372070	3723.536133
-242.500000	-1565.000000	1713.384766	3737.934082
-242.500000	-1565.000000	1712.397461	3623.197021
-242.500000	-1565.000000	1711.409180	3723.677490
-242.500000	-1565.000000	1710.421875	3717.819092
-242.500000	-1565.000000	1709.433594	3615.811523
-242.500000	-1565.000000	1708.445313	3804.770752
-242.500000	-1565.000000	1707.457031	3798.898682
-242.500000	-1565.000000	1706.468750	3676.709473
-242.500000	-1565.000000	1705.479492	3739.127197
-242.500000	-1565.000000	1704.490234	3831.849121
-242.500000	-1565.000000	1703.500977	3798.178467
-242.500000	-1565.000000	1702.511719	3873.162354
-242.500000	-1565.000000	1701.521484	3829.393066
-242.500000	-1565.000000	1700.532227	3826.049561
-242.500000	-1565.000000	1699.541992	3832.806885
-242.500000	-1565.000000	1698.551758	3839.561279
-242.500000	-1565.000000	1697.560547	4063.361816
-242.500000	-1565.000000	1696.570313	3989.318848
-242.500000	-1565.000000	1695.579102	4031.353760
-242.500000	-1565.000000	1694.587891	4058.237549
-242.500000	-1565.000000	1693.596680	4075.022949
-242.500000	-1565.000000	1692.604492	4066.589844
-242.500000	-1565.000000	1691.613281	4022.871826
-242.500000	-1565.000000	1690.621094	4064.854492
-242.500000	-1565.000000	1689.628906	4142.092285
-242.500000	-1565.000000	1688.636719	4146.246582
-242.500000	-1565.000000	1687.643555	4218.396973
-242.500000	-1565.000000	1686.650391	4172.174805
-242.500000	-1565.000000	1685.657227	4282.049805
-242.500000	-1565.000000	1684.664063	4233.316406
-242.500000	-1565.000000	1683.670898	4305.386719
-242.500000	-1565.000000	1682.676758	4218.933105
-242.500000	-1565.000000	1681.683594	4308.581543
-242.500000	-1565.000000	1680.689453	4325.266113
-242.500000	-1565.000000	1679.694336	4258.976563
-242.500000	-1565.000000	1678.700195	4295.772949
-242.500000	-1565.000000	1677.705078	4460.721191
-242.500000	-1565.000000	1676.709961	4394.444336
-242.500000	-1565.000000	1675.714844	4546.741211
-242.500000	-1565.000000	1674.719727	4327.273926
-242.500000	-1565.000000	1673.723633	4348.950684
-242.500000	-1565.000000	1672.728516	4348.024414
-242.500000	-1565.000000	1671.732422	4347.098633
-242.500000	-1565.000000	1670.735352	4383.812988
-242.500000	-1565.000000	1669.739258	4327.686035
-242.500000	-1565.000000	1668.742188	4316.731934
-242.500000	-1565.000000	1667.746094	4398.567871
-242.500000	-1565.000000	1666.748047	4502.934570
-242.500000	-1565.000000	1665.750977	4416.749023
-242.500000	-1565.000000	1664.753906	4318.069824
-242.500000	-1565.000000	1663.755859	4294.600586
-242.500000	-1565.000000	1662.757813	4423.950684
-242.500000	-1565.000000	1661.759766	4240.178223
-242.500000	-1565.000000	1660.761719	4437.092285
-242.500000	-1565.000000	1659.762695	4280.933594
-242.500000	-1565.000000	1658.763672	4167.390625
-242.500000	-1565.000000	1657.764648	4401.730469
-242.500000	-1565.000000	1656.765625	4418.307129
-242.500000	-1565.000000	1655.765625	4164.732422
-242.500000	-1565.000000	1654.766602	4351.407227
-242.500000	-1565.000000	1653.766602	4240.470215
-242.500000	-1565.000000	1652.766602	4344.557617
-242.500000	-1565.000000	1651.765625	4293.649902
-242.500000	-1565.000000	1650.765625	4240.265137
-242.500000	-1565.000000	1649.764648	4214.382324
-242.500000	-1565.000000	1648.763672	4233.467285
-242.500000	-1565.000000	1647.762695	4364.913574
-242.500000	-1565.000000	1646.761719	4276.605957
-242.500000	-1565.000000	1645.759766	4343.090332
-242.500000	-1565.000000	1644.757813	4449.473633
-242.500000	-1565.000000	1643.755859	4438.548340
-242.500000	-1565.000000	1642.753906	4592.260742
-242.500000	-1565.000000	1641.750977	4628.693848
-242.500000	-1565.000000	1640.749023	4667.604492
-242.500000	-1565.000000	1639.746094	4708.991211
-242.500000	-1565.000000	1638.742188	4550.975098
-242.500000	-1565.000000	1637.739258	4706.991211
-242.500000	-1565.000000	1636.735352	4511.673340
-242.500000	-1565.000000	1635.732422	4538.113281
-242.500000	-1565.000000	1634.728516	4537.149414
-242.500000	-1565.000000	1633.723633	4346.970703
-242.500000	-1565.000000	1632.719727	4470.504883
-242.500000	-1565.000000	1631.714844	4315.261719
-242.500000	-1565.000000	1630.709961	4199.893555
-242.500000	-1565.000000	1629.705078	4286.066406
-242.500000	-1565.000000	1628.700195	4178.213867
-242.500000	-1565.000000	1627.694336	4157.435059
-242.500000	-1565.000000	1626.689453	4159.038574
-242.500000	-1565.000000	1625.683594	4120.874023
-242.500000	-1565.000000	1624.676758	4075.270752
-242.500000	-1565.000000	1623.670898	4153.906250
-242.500000	-1565.000000	1622.664063	4090.928223
-242.500000	-1565.000000	1621.657227	4003.143066
-242.500000	-1565.000000	1620.650391	4109.054688
-242.500000	-1565.000000	1619.643555	4051.089844
-242.500000	-1565.000000	1618.635742	4020.449219
-242.500000	-1565.000000	1617.628906	4106.438965
-242.500000	-1565.000000	1616.621094	3976.571045
-242.500000	-1565.000000	1615.613281	4094.776123
-242.500000	-1565.000000	1614.604492	4128.622559
-242.500000	-1565.000000	1613.596680	4060.810059
-242.500000	-1565.000000	1612.587891	3990.547607
-242.500000	-1565.000000	1611.579102	4155.731934
-242.500000	-1565.000000	1610.569336	4063.181152
-242.500000	-1565.000000	1609.560547	4109.382813
-242.500000	-1565.000000	1608.550781	4024.309814
-242.500000	-1565.000000	1607.541016	4134.875000
-242.500000	-1565.000000	1606.531250	4240.441895
-242.500000	-1565.000000	1605.521484	4259.341797
-242.500000	-1565.000000	1604.510742	4246.066406
-242.500000	-1565.000000	1603.500000	4329.277832
-242.500000	-1565.000000	1602.489258	4209.638672
-242.500000	-1565.000000	1601.478516	4221.109863
-242.500000	-1565.000000	1600.467773	4212.797852
-242.500000	-1565.000000	1599.456055	4345.379883
-242.500000	-1565.000000	1598.444336	4327.159668
-242.500000	-1565.000000	1597.432617	4217.529785
-242.500000	-1565.000000	1596.419922	4224.045898
-242.500000	-1565.000000	1595.408203	4153.999023
-242.500000	-1565.000000	1594.395508	4098.796875
-242.500000	-1565.000000	1593.382813	4023.868408
-242.500000	-1565.000000	1592.370117	4064.972900
-242.500000	-1565.000000	1591.356445	4120.865234
-242.500000	-1565.000000	1590.343750	4117.524414
-242.500000	-1565.000000	1589.330078	4079.653076
-242.500000	-1565.000000	1588.316406	4100.981934
-242.500000	-1565.000000	1587.301758	4179.007813
-242.500000	-1565.000000	1586.288086	4141.146973
-242.500000	-1565.000000	1585.273438	4088.515625
-242.500000	-1565.000000	1584.258789	4159.102051
-242.500000	-1565.000000	1583.244141	4224.731934
-242.500000	-1565.000000	1582.228516	4147.486816
-242.500000	-1565.000000	1581.213867	4186.004883
-242.500000	-1565.000000	1580.198242	4229.430176
-242.500000	-1565.000000	1579.182617	4179.307129
-242.500000	-1565.000000	1578.166016	4062.763428
-242.500000	-1565.000000	1577.150391	4108.646973
-242.500000	-1565.000000	1576.133789	4198.786133
-242.500000	-1565.000000	1575.117188	4151.170410
-242.500000	-1565.000000	1574.100586	4096.198730
-242.500000	-1565.000000	1573.083984	4070.747803
-242.500000	-1565.000000	1572.066406	4111.664551
-242.500000	-1565.000000	1571.048828	4049.364258
-242.500000	-1565.000000	1570.031250	4063.245117
-242.500000	-1565.000000	1569.013672	4072.207520
-242.500000	-1565.000000	1567.995117	4066.432617
-242.500000	-1565.000000	1566.976563	4050.839844
-242.500000	-1565.000000	1565.958008	4113.798340
-242.500000	-1565.000000	1564.939453	4135.011719
-242.500000	-1565.000000	1563.920898	4121.867188
-242.500000	-1565.000000	1562.901367	4214.205566
-242.500000	-1565.000000	1561.881836	4125.023438
-242.500000	-1565.000000	1560.862305	4168.283203
-242.500000	-1565.000000	1559.842773	4160.044434
-242.500000	-1565.000000	1558.822266	4217.983398
-242.500000	-1565.000000	1557.802734	4057.814453
-242.500000	-1565.000000	1556.782227	4083.901855
-242.500000	-1565.000000	1555.761719	4198.153809
-242.500000	-1565.000000	1554.740234	4167.877441
-242.500000	-1565.000000	1553.719727	4230.648438
-242.500000	-1565.000000	1552.698242	4119.601074
-242.500000	-1565.000000	1551.676758	4157.882813
-242.500000	-1565.000000	1550.654297	4232.849121
-242.500000	-1565.000000	1549.632813	4151.226074
-242.500000	-1565.000000	1548.610352	4221.270020
-242.500000	-1565.000000	1547.587891	4276.613281
-242.500000	-1565.000000	1546.565430	4280.594727
-242.500000	-1565.000000	1545.542969	4277.242188
-242.500000	-1565.000000	1544.519531	4244.566895
-242.500000	-1565.000000	1543.496094	4233.893555
-242.500000	-1565.000000	1542.472656	4064.456787
-242.500000	-1565.000000	1541.449219	4026.962891
-242.500000	-1565.000000	1540.424805	4231.197754
-242.500000	-1565.000000	1539.400391	4122.894043
-242.500000	-1565.000000	1538.375977	4222.079590
-242.500000	-1565.000000	1537.351563	4267.542969
-242.500000	-1565.000000	1536.327148	4254.439453
-242.500000	-1565.000000	1535.301758	4224.268555
-242.500000	-1565.000000	1534.276367	4198.986816
-242.500000	-1565.000000	1533.250977	4319.991211
-242.500000	-1565.000000	1532.225586	4197.203613
-242.500000	-1565.000000	1531.199219	4152.448242
-242.500000	-1565.000000	1530.173828	4115.020508
-242.500000	-1565.000000	1529.147461	4206.708496
-242.500000	-1565.000000	1528.121094	4239.909668
-242.500000	-1565.000000	1527.093750	4251.182617
-242.500000	-1565.000000	1526.067383	4148.039063
-242.500000	-1565.000000	1525.040039	4166.627930
-242.500000	-1565.000000	1524.012695	4165.742676
-242.500000	-1565.000000	1522.984375	4225.675781
-242.500000	-1565.000000	1521.957031	4183.429688
-242.500000	-1565.000000	1520.928711	4357.623535
-242.500000	-1565.000000	1519.900391	4240.000000
-242.500000	-1565.000000	1518.872070	4239.098633
-242.500000	-1565.000000	1517.842773	4325.683594
-242.500000	-1565.000000	1516.814453	4293.178223
-242.500000	-1565.000000	1515.785156	4265.544922
-242.500000	-1565.000000	1514.755859	4352.067871
-242.500000	-1565.000000	1513.725586	4309.865234
-242.500000	-1565.000000	1512.696289	4291.955566
-242.500000	-1565.000000	1511.666016	4278.907227
-242.500000	-1565.000000	1510.635742	4239.172363
-242.500000	-1565.000000	1509.605469	4354.719727
-242.500000	-1565.000000	1508.574219	4361.069824
-242.500000	-1565.000000	1507.543945	4447.441895
-242.500000	-1565.000000	1506.512695	4456.193848
-242.500000	-1565.000000	1505.481445	4406.766113
-242.500000	-1565.000000	1504.449219	4321.007813
-242.500000	-1565.000000	1503.417969	4356.432129
-242.500000	-1565.000000	1502.385742	4319.168457
-242.500000	-1565.000000	1501.353516	4277.076660
-242.500000	-1565.000000	1500.321289	4484.405273
-242.500000	-1565.000000	1499.288086	4451.979004
-242.500000	-1565.000000	1498.255859	4284.026855
-242.500000	-1565.000000	1497.222656	4430.724609
-242.500000	-1565.000000	1496.189453	4439.458496
-242.500000	-1565.000000	1495.155273	4518.333496
-242.500000	-1565.000000	1494.122070	4551.227051
-242.500000	-1565.000000	1493.087891	4455.964355
-242.500000	-1565.000000	1492.053711	4515.446289
-242.500000	-1565.000000	1491.018555	4553.152344
-242.500000	-1565.000000	1489.984375	4523.187012
-242.500000	-1565.000000	1488.949219	4652.671875
-242.500000	-1565.000000	1487.914063	4475.370605
-242.500000	-1565.000000	1486.878906	4643.444824
-242.500000	-1565.000000	1485.843750	4596.585449
-242.500000	-1565.000000	1484.807617	4544.918457
-242.500000	-1565.000000	1483.771484	4635.648926
-242.500000	-1565.000000	1482.735352	4591.233398
-242.500000	-1565.000000	1481.699219	4732.568848
-242.500000	-1565.000000	1480.662109	4654.388184
-242.500000	-1565.000000	1479.625000	4658.217285
-242.500000	-1565.000000	1478.587891	4700.613770
-242.500000	-1565.000000	1477.550781	4757.452148
-242.500000	-1565.000000	1476.513672	4833.542480
-242.500000	-1565.000000	1475.475586	4892.736328
-242.500000	-1565.000000	1474.437500	4857.973145
-242.500000	-1565.000000	1473.399414	4919.543945
-242.500000	-1565.000000	1472.361328	4928.123535
-242.500000	-1565.000000	1471.322266	4924.664063
-242.500000	-1565.000000	1470.283203	4945.270508
-242.500000	-1565.000000	1469.244141	5119.848633
-242.500000	-1565.000000	1468.205078	5121.160156
-242.500000	-1565.000000	1467.166016	5165.759766
-242.500000	-1565.000000	1466.125977	5236.788086
-242.500000	-1565.000000	1465.085938	5226.053223
-242.500000	-1565.000000	1464.045898	5220.129883
-242.500000	-1565.000000	1463.004883	5214.208496
-242.500000	-1565.000000	1461.964844	5388.465332
-242.500000	-1565.000000	1460.923828	5296.043457
-242.500000	-1565.000000	1459.882813	5249.286133
-242.500000	-1565.000000	1458.841797	5447.430176
-242.500000	-1565.000000	1457.799805	5448.665527
-242.500000	-1565.000000	1456.757813	5406.703613
-242.500000	-1565.000000	1455.715820	5446.334473
-242.500000	-1565.000000	1454.673828	5428.377930
-242.500000	-1565.000000	1453.631836	5429.614746
-242.500000	-1565.000000	1452.588867	5485.998047
-242.500000	-1565.000000	1451.545898	5472.837402
-242.500000	-1565.000000	1450.502930	5521.996582
-242.500000	-1565.000000	1449.458984	5470.494141
-242.500000	-1565.000000	1448.416016	5476.509766
-242.500000	-1565.000000	1447.372070	5487.312988
-242.500000	-1565.000000	1446.328125	5421.481934
-242.500000	-1565.000000	1445.284180	5393.984863
-242.500000	-1565.000000	1444.239258	5344.956543
-242.500000	-1565.000000	1443.194336	5283.983398
-242.500000	-1565.000000	1442.150391	5424.014160
-242.500000	-1565.000000	1441.104492	5401.322754
-242.500000	-1565.000000	1440.059570	5359.507813
-242.500000	-1565.000000	1439.013672	5255.542969
-242.500000	-1565.000000	1437.967773	5254.416016
-242.500000	-1565.000000	1436.921875	5267.629395
-242.500000	-1565.000000	1435.875977	5125.517578
-242.500000	-1565.000000	1434.829102	5169.809082
-242.500000	-1565.000000	1433.783203	5113.764160
-242.500000	-1565.000000	1432.735352	5091.174805
-242.500000	-1565.000000	1431.688477	5054.269531
-242.500000	-1565.000000	1430.641602	5222.658203
-242.500000	-1565.000000	1429.593750	5128.465820
-242.500000	-1565.000000	1428.545898	5074.873535
-242.500000	-1565.000000	1427.498047	5080.939941
-242.500000	-1565.000000	1426.449219	5165.705078
-242.500000	-1565.000000	1425.401367	5131.213379
-242.500000	-1565.000000	1424.352539	5149.181641
-242.500000	-1565.000000	1423.303711	5036.056641
-242.500000	-1565.000000	1422.253906	5034.973633
-242.500000	-1565.000000	1421.205078	5088.685059
-242.500000	-1565.000000	1420.155273	5151.899902
-242.500000	-1565.000000	1419.105469	5067.445801
-242.500000	-1565.000000	1418.055664	5228.250488
-242.500000	-1565.000000	1417.004883	5074.786621
-242.500000	-1565.000000	1415.955078	5057.036133
-242.500000	-1565.000000	1414.904297	5141.601074
-242.500000	-1565.000000	1413.852539	5235.644531
-242.500000	-1565.000000	1412.801758	5156.035156
-242.500000	-1565.000000	1411.750000	5271.433594
-242.500000	-1565.000000	1410.698242	5213.245117
-242.500000	-1565.000000	1409.646484	5128.937012
-242.500000	-1565.000000	1408.594727	5172.979492
-242.500000	-1565.000000	1407.541992	5328.659668
-242.500000	-1565.000000	1406.490234	5253.880859
-242.500000	-1565.000000	1405.437500	5399.977051
-242.500000	-1565.000000	1404.383789	5348.955566
-242.500000	-1565.000000	1403.331055	5369.164551
-242.500000	-1565.000000	1402.277344	5434.453613
-242.500000	-1565.000000	1401.223633	5419.045410
-242.500000	-1565.000000	1400.169922	5391.783203
-242.500000	-1565.000000	1399.115234	5245.952637
-242.500000	-1565.000000	1398.061523	5365.744629
-242.500000	-1565.000000	1397.006836	5262.651855
-242.500000	-1565.000000	1395.952148	5308.916504
-242.500000	-1565.000000	1394.896484	5279.335449
-242.500000	-1565.000000	1393.841797	5209.492676
-242.500000	-1565.000000	1392.786133	5317.318848
-242.500000	-1565.000000	1391.730469	5238.025391
-242.500000	-1565.000000	1390.673828	5317.387695
-242.500000	-1565.000000	1389.618164	5287.834473
-242.500000	-1565.000000	1388.561523	5236.995117
-242.500000	-1565.000000	1387.504883	5119.930176
-242.500000	-1565.000000	1386.448242	5199.247559
-242.500000	-1565.000000	1385.390625	5174.473145
-242.500000	-1565.000000	1384.333984	5246.650391
-242.500000	-1565.000000	1383.276367	5276.245117
-242.500000	-1565.000000	1382.217773	5164.022949
-242.500000	-1565.000000	1381.160156	5179.444824
-242.500000	-1565.000000	1380.101563	5194.859375
-242.500000	-1565.000000	1379.042969	5314.188965
-242.500000	-1565.000000	1377.984375	5282.339844
-242.500000	-1565.000000	1376.925781	5307.164063
-242.500000	-1565.000000	1375.866211	5232.843262
-242.500000	-1565.000000	1374.807617	5201.030762
-242.500000	-1565.000000	1373.747070	5209.340332
-242.500000	-1565.000000	1372.687500	5255.385742
-242.500000	-1565.000000	1371.627930	5282.544922
-242.500000	-1565.000000	1370.567383	5234.243164
-242.500000	-1565.000000	1369.506836	5200.104980
-242.500000	-1565.000000	1368.446289	5116.489746
-242.500000	-1565.000000	1367.384766	5047.047852
-242.500000	-1565.000000	1366.323242	5074.220215
-242.500000	-1565.000000	1365.261719	5131.998047
-242.500000	-1565.000000	1364.200195	5163.848633
-242.500000	-1565.000000	1363.138672	5202.747070
-242.500000	-1565.000000	1362.076172	5105.115234
-242.500000	-1565.000000	1361.013672	5198.131836
-242.500000	-1565.000000	1359.951172	5114.658203
-242.500000	-1565.000000	1358.888672	5111.193359
-242.500000	-1565.000000	1357.825195	5105.377930
-242.500000	-1565.000000	1356.761719	5125.426270
-242.500000	-1565.000000	1355.698242	5286.501953
-242.500000	-1565.000000	1354.634766	5158.445801
-242.500000	-1565.000000	1353.570313	5117.379395
-242.500000	-1565.000000	1352.506836	5099.821289
-242.500000	-1565.000000	1351.442383	5082.270020
-242.500000	-1565.000000	1350.376953	5243.177246
-242.500000	-1565.000000	1349.312500	5173.955566
-242.500000	-1565.000000	1348.247070	5217.420410
-242.500000	-1565.000000	1347.181641	5267.905762
-242.500000	-1565.000000	1346.116211	5306.638184
-242.500000	-1565.000000	1345.049805	5420.408691
-242.500000	-1565.000000	1343.984375	5395.775879
-242.500000	-1565.000000	1342.917969	5331.297363
-242.500000	-1565.000000	1341.851563	5339.508789
-242.500000	-1565.000000	1340.784180	5338.342285
-242.500000	-1565.000000	1339.716797	5332.490234
-242.500000	-1565.000000	1338.650391	5507.005371
-242.500000	-1565.000000	1337.582031	5391.048828
-242.500000	-1565.000000	1336.514648	5394.552734
-242.500000	-1565.000000	1335.446289	5447.212891
-242.500000	-1565.000000	1334.378906	5392.192871
-242.500000	-1565.000000	1333.310547	5407.392090
-242.500000	-1565.000000	1332.241211	5467.031250
-242.500000	-1565.000000	1331.172852	5444.784668
-242.500000	-1565.000000	1330.103516	5429.562500
-242.500000	-1565.000000	1329.034180	5416.684570
-242.500000	-1565.000000	1327.964844	5513.663574
-242.500000	-1565.000000	1326.894531	5643.314941
-242.500000	-1565.000000	1325.824219	5378.080078
-242.500000	-1565.000000	1324.753906	5255.441406
-242.500000	-1565.000000	1323.683594	5410.750000
-242.500000	-1565.000000	1322.612305	5409.562988
-242.500000	-1565.000000	1321.541992	5508.747070
-242.500000	-1565.000000	1320.470703	5407.188965
-242.500000	-1565.000000	1319.399414	5338.339355
-242.500000	-1565.000000	1318.327148	5561.104004
-242.500000	-1565.000000	1317.254883	5536.560547
-242.500000	-1565.000000	1316.182617	5474.721191
-242.500000	-1565.000000	1315.110352	5349.967285
-242.500000	-1565.000000	1314.038086	5397.734375
-242.500000	-1565.000000	1312.964844	5422.178711
-242.500000	-1565.000000	1311.891602	5462.918945
-242.500000	-1565.000000	1310.818359	5310.326172
-242.500000	-1565.000000	1309.745117	5418.600586
-242.500000	-1565.000000	1308.670898	5561.748047
-242.500000	-1565.000000	1307.596680	5406.904785
-242.500000	-1565.000000	1306.522461	5510.430664
-242.500000	-1565.000000	1305.448242	5378.931152
-242.500000	-1565.000000	1304.373047	5568.479004
-242.500000	-1565.000000	1303.297852	5418.419434
-242.500000	-1565.000000	1302.222656	5614.848633
-242.500000	-1565.000000	1301.147461	5562.471680
-242.500000	-1565.000000	1300.071289	5507.793457
-242.500000	-1565.000000	1298.996094	5562.340820
-242.500000	-1565.000000	1297.919922	5447.289063
-242.500000	-1565.000000	1296.842773	5429.829102
-242.500000	-1565.000000	1295.766602	5537.759766
-242.500000	-1565.000000	1294.689453	5392.609375
-242.500000	-1565.000000	1293.612305	5509.783203
-242.500000	-1565.000000	1292.535156	5673.311523
-242.500000	-1565.000000	1291.457031	5572.303223
-242.500000	-1565.000000	1290.378906	5666.163574
-242.500000	-1565.000000	1289.300781	5794.764648
-242.500000	-1565.000000	1288.222656	5747.116211
-242.500000	-1565.000000	1287.144531	5609.093262
-242.500000	-1565.000000	1286.065430	5505.890137
-242.500000	-1565.000000	1284.986328	5696.963379
-242.500000	-1565.000000	1283.907227	5704.966309
-242.500000	-1565.000000	1282.827148	5590.229980
-242.500000	-1565.000000	1281.748047	5829.775391
-242.500000	-1565.000000	1280.667969	5731.264160
-242.500000	-1565.000000	1279.586914	5848.018066
-242.500000	-1565.000000	1278.506836	5719.466797
-242.500000	-1565.000000	1277.425781	5794.532227
-242.500000	-1565.000000	1276.344727	5640.609375
-242.500000	-1565.000000	1275.263672	5771.149902
-242.500000	-1565.000000	1274.182617	5769.867676
-242.500000	-1565.000000	1273.100586	5921.120117
-242.500000	-1565.000000	1272.018555	5915.183105
-242.500000	-1565.000000	1270.936523	5983.170898
-242.500000	-1565.000000	1269.853516	5887.146973
-242.500000	-1565.000000	1268.771484	5922.782227
-242.500000	-1565.000000	1267.688477	5780.641602
-242.500000	-1565.000000	1266.605469	5906.297363
-242.500000	-1565.000000	1265.521484	5865.753906
-242.500000	-1565.000000	1264.438477	5965.956543
-242.500000	-1565.000000	1263.354492	5992.305176
-242.500000	-1565.000000	1262.270508	5910.259766
-242.500000	-1565.000000	1261.185547	5957.356934
-242.500000	-1565.000000	1260.101563	5914.539063
-242.500000	-1565.000000	1259.016602	5950.090332
-242.500000	-1565.000000	1257.930664	6001.753418
-242.500000	-1565.000000	1256.845703	6032.661133
-242.500000	-1565.000000	1255.759766	6063.554688
-242.500000	-1565.000000	1254.674805	5940.173340
-242.500000	-1565.000000	1253.587891	6162.128418
-242.500000	-1565.000000	1252.501953	6195.271484
-242.500000	-1565.000000	1251.415039	6067.339355
-242.500000	-1565.000000	1250.329102	6134.992676
-242.500000	-1565.000000	1249.241211	6050.826172
-242.500000	-1565.000000	1248.154297	6210.423340
-242.500000	-1565.000000	1247.066406	6110.185059
-242.500000	-1565.000000	1245.979492	6207.642578
-242.500000	-1565.000000	1244.890625	5978.773926
-242.500000	-1565.000000	1243.802734	6103.782227
-242.500000	-1565.000000	1242.713867	5948.533203
-242.500000	-1565.000000	1241.625000	6183.709473
-242.500000	-1565.000000	1240.536133	6099.677246
-242.500000	-1565.000000	1239.447266	5981.254395
-242.500000	-1565.000000	1238.357422	6090.055664
-242.500000	-1565.000000	1237.267578	6061.158691
-242.500000	-1565.000000	1236.177734	5883.187012
-242.500000	-1565.000000	1235.087891	5989.642090
-242.500000	-1565.000000	1233.997070	6013.514648
-242.500000	-1565.000000	1232.906250	5810.458496
-242.500000	-1565.000000	1231.815430	5797.693359
-242.500000	-1565.000000	1230.724609	5938.435059
-242.500000	-1565.000000	1229.632813	5879.834961
-242.500000	-1565.000000	1228.541016	5956.372559
-242.500000	-1565.000000	1227.449219	5952.741699
-242.500000	-1565.000000	1226.357422	5749.968750
-242.500000	-1565.000000	1225.264648	5780.711426
-242.500000	-1565.000000	1224.171875	5740.513184
-242.500000	-1565.000000	1223.079102	5700.332031
-242.500000	-1565.000000	1221.986328	5737.923828
-242.500000	-1565.000000	1220.892578	5679.468750
-242.500000	-1565.000000	1219.798828	5701.045898
-242.500000	-1565.000000	1218.705078	5622.055176
-242.500000	-1565.000000	1217.611328	5778.441406
-242.500000	-1565.000000	1216.516602	5685.761719
-242.500000	-1565.000000	1215.421875	5593.122559
-242.500000	-1565.000000	1214.327148	5749.407227
-242.500000	-1565.000000	1213.231445	5663.643066
-242.500000	-1565.000000	1212.136719	5797.016602
-242.500000	-1565.000000	1211.041016	5720.405762
-242.500000	-1565.000000	1209.945313	5739.642090
-242.500000	-1565.000000	1208.848633	5847.817383
-242.500000	-1565.000000	1207.752930	5796.327637
-242.500000	-1565.000000	1206.656250	5776.775879
-242.500000	-1565.000000	1205.558594	5743.557617
-242.500000	-1565.000000	1204.461914	5794.664551
-242.500000	-1565.000000	1203.364258	5693.110840
-242.500000	-1565.000000	1202.266602	5785.201660
-242.500000	-1565.000000	1201.168945	5836.261719
-242.500000	-1565.000000	1200.071289	5730.212402
-242.500000	-1565.000000	1198.972656	5742.566895
-242.500000	-1565.000000	1197.874023	5848.213379
-242.500000	-1565.000000	1196.775391	5799.107422
-242.500000	-1565.000000	1195.675781	5850.102539
-242.500000	-1565.000000	1194.576172	5725.974609
-242.500000	-1565.000000	1193.476563	5672.380859
-242.500000	-1565.000000	1192.376953	5677.908203
-242.500000	-1565.000000	1191.276367	5726.608887
-242.500000	-1565.000000	1190.176758	5616.250488
-242.500000	-1565.000000	1189.076172	5676.298828
-242.500000	-1565.000000	1187.974609	5663.649902
-242.500000	-1565.000000	1186.874023	5675.980469
-242.500000	-1565.000000	1185.772461	5751.860840
-242.500000	-1565.000000	1184.670898	5811.820313
-242.500000	-1565.000000	1183.569336	5780.998535
-242.500000	-1565.000000	1182.466797	5856.800293
-242.500000	-1565.000000	1181.364258	5859.997559
-242.500000	-1565.000000	1180.261719	5792.906738
-242.500000	-1565.000000	1179.159180	5884.519531
-242.500000	-1565.000000	1178.055664	5923.965332
-242.500000	-1565.000000	1176.952148	5847.840820
-242.500000	-1565.000000	1175.848633	5898.601563
-242.500000	-1565.000000	1174.745117	5777.222168
-242.500000	-1565.000000	1173.640625	5902.691895
-242.500000	-1565.000000	1172.536133	5817.583984
-242.500000	-1565.000000	1171.431641	5915.827637
-242.500000	-1565.000000	1170.326172	5873.743652
-242.500000	-1565.000000	1169.221680	5924.424316
-242.500000	-1565.000000	1168.116211	5864.263184
-242.500000	-1565.000000	1167.010742	5901.354492
-242.500000	-1565.000000	1165.904297	5872.872559
-242.500000	-1565.000000	1164.797852	5970.963379
-242.500000	-1565.000000	1163.691406	5974.109863
-242.500000	-1565.000000	1162.584961	5979.512695
-242.500000	-1565.000000	1161.478516	5917.158691
-242.500000	-1565.000000	1160.371094	6049.015137
-242.500000	-1565.000000	1159.263672	6056.652344
-242.500000	-1565.000000	1158.155273	6080.083008
-242.500000	-1565.000000	1157.047852	5911.709961
-242.500000	-1565.000000	1155.939453	5905.835938
-242.500000	-1565.000000	1154.831055	5947.325195
-242.500000	-1565.000000	1153.722656	5889.583008
-242.500000	-1565.000000	1152.613281	5964.870117
-242.500000	-1565.000000	1151.503906	5868.833984
-242.500000	-1565.000000	1150.394531	5901.277832
-242.500000	-1565.000000	1149.285156	5839.090332
-242.500000	-1565.000000	1148.174805	5995.395996
-242.500000	-1565.000000	1147.064453	5998.513184
-242.500000	-1565.000000	1145.954102	6017.386230
-242.500000	-1565.000000	1144.842773	5988.985840
-242.500000	-1565.000000	1143.732422	5956.097656
-242.500000	-1565.000000	1142.621094	6031.205078
-242.500000	-1565.000000	1141.508789	5883.617188
-242.500000	-1565.000000	1140.397461	5915.981934
-242.500000	-1565.000000	1139.285156	6031.508789
-242.500000	-1565.000000	1138.172852	5848.060547
-242.500000	-1565.000000	1137.060547	5871.420410
-242.500000	-1565.000000	1135.947266	5906.001465
-242.500000	-1565.000000	1134.834961	6050.617188
-242.500000	-1565.000000	1133.720703	6116.574707
-242.500000	-1565.000000	1132.607422	6076.989746
-242.500000	-1565.000000	1131.493164	5970.090332
-242.500000	-1565.000000	1130.379883	6094.358887
-242.500000	-1565.000000	1129.264648	6171.458008
-242.500000	-1565.000000	1128.150391	6190.207031
-242.500000	-1565.000000	1127.035156	6112.527344
-242.500000	-1565.000000	1125.919922	6158.180664
-242.500000	-1565.000000	1124.804688	6163.469238
-242.500000	-1565.000000	1123.689453	6123.939941
-242.500000	-1565.000000	1122.573242	6200.918945
-242.500000	-1565.000000	1121.457031	6123.322754
-242.500000	-1565.000000	1120.340820	6171.155273
-242.500000	-1565.000000	1119.223633	6026.440430
-242.500000	-1565.000000	1118.106445	6078.747559
-242.500000	-1565.000000	1116.989258	6137.742188
-242.500000	-1565.000000	1115.872070	6131.833008
-242.500000	-1565.000000	1114.753906	6168.420410
-242.500000	-1565.000000	1113.635742	6274.306641
-242.500000	-1565.000000	1112.517578	6156.591309
-242.500000	-1565.000000	1111.399414	6146.209961
-242.500000	-1565.000000	1110.280273	6231.914063
-242.500000	-1565.000000	1109.161133	6246.090820
-242.500000	-1565.000000	1108.041992	6443.400391
-242.500000	-1565.000000	1106.921875	6325.778320
-242.500000	-1565.000000	1105.802734	6304.202637
-242.500000	-1565.000000	1104.682617	6479.038574
-242.500000	-1565.000000	1103.561523	6301.242676
-242.500000	-1565.000000	1102.441406	6384.532227
-242.500000	-1565.000000	1101.320313	6510.157227
-242.500000	-1565.000000	1100.199219	6477.409668
-242.500000	-1565.000000	1099.077148	6464.739746
-242.500000	-1565.000000	1097.956055	6467.675781
-242.500000	-1565.000000	1096.833984	6492.891113
-242.500000	-1565.000000	1095.711914	6482.451172
-242.500000	-1565.000000	1094.588867	6616.778320
-242.500000	-1565.000000	1093.465820	6552.873535
-242.500000	-1565.000000	1092.342773	6669.310059
-242.500000	-1565.000000	1091.219727	6707.796387
-242.500000	-1565.000000	1090.096680	6670.612793
-242.500000	-1565.000000	1088.972656	6695.731445
-242.500000	-1565.000000	1087.848633	6778.660645
-242.500000	-1565.000000	1086.723633	6901.571289
-242.500000	-1565.000000	1085.599609	6926.614746
-242.500000	-1565.000000	1084.474609	7073.876953
-242.500000	-1565.000000	1083.349609	7081.090332
-242.500000	-1565.000000	1082.223633	7170.489258
-242.500000	-1565.000000	1081.097656	7166.569824
-242.500000	-1565.000000	1079.971680	7213.718262
-242.500000	-1565.000000	1078.845703	7316.337402
-242.500000	-1565.000000	1077.719727	7401.152344
-242.500000	-1565.000000	1076.592773	7370.553711
-242.500000	-1565.000000	1075.465820	7353.276855
-242.500000	-1565.000000	1074.337891	7522.290527
-242.500000	-1565.000000	1073.210938	7591.451660
-242.500000	-1565.000000	1072.083008	7558.615234
-242.500000	-1565.000000	1070.954102	7627.732910
-242.500000	-1565.000000	1069.826172	7725.618164
-242.500000	-1565.000000	1068.697266	7457.977051
-242.500000	-1565.000000	1067.568359	7584.642578
-242.500000	-1565.000000	1066.439453	7538.556641
-242.500000	-1565.000000	1065.309570	7439.369629
-242.500000	-1565.000000	1064.180664	7455.299316
-242.500000	-1565.000000	1063.049805	7351.751953
-242.500000	-1565.000000	1061.919922	7192.956055
-242.500000	-1565.000000	1060.789063	7104.997559
-242.500000	-1565.000000	1059.658203	7010.447754
-242.500000	-1565.000000	1058.527344	6973.408691
-242.500000	-1565.000000	1057.396484	7097.697266
-242.500000	-1565.000000	1056.264648	6910.426270
-242.500000	-1565.000000	1055.132813	6994.912109
-242.500000	-1565.000000	1054.000000	6997.654297
-242.500000	-1565.000000	1052.868164	7007.017578
-242.500000	-1565.000000	1051.735352	7029.617188
-242.500000	-1565.000000	1050.602539	7056.618164
-242.500000	-1565.000000	1049.468750	7138.756348
-242.500000	-1565.000000	1048.335938	7026.768555
-242.500000	-1565.000000	1047.202148	6941.292969
-242.500000	-1565.000000	1046.067383	6899.946777
-242.500000	-1565.000000	1044.933594	7081.215820
-242.500000	-1565.000000	1043.798828	7121.378906
-242.500000	-1565.000000	1042.664063	7262.853516
-242.500000	-1565.000000	1041.528320	7329.379395
-242.500000	-1565.000000	1040.393555	7356.239746
-242.500000	-1565.000000	1039.257813	7385.287109
-242.500000	-1565.000000	1038.122070	7436.326660
-242.500000	-1565.000000	1036.985352	7454.337402
-242.500000	-1565.000000	1035.848633	7531.729492
-242.500000	-1565.000000	1034.711914	7549.706055
-242.500000	-1565.000000	1033.575195	7484.124512
-242.500000	-1565.000000	1032.437500	7484.516602
-242.500000	-1565.000000	1031.299805	7427.770508
-242.500000	-1565.000000	1030.162109	7335.897949
-242.500000	-1565.000000	1029.023438	7360.482910
-242.500000	-1565.000000	1027.885742	7237.925293
-242.500000	-1565.000000	1026.747070	7209.829102
-242.500000	-1565.000000	1025.607422	7232.228516
-242.500000	-1565.000000	1024.468750	7272.170898
-242.500000	-1565.000000	1023.329102	7156.329590
-242.500000	-1565.000000	1022.189453	7167.755371
-242.500000	-1565.000000	1021.048828	7065.149414
-242.500000	-1565.000000	1019.908203	7223.470703
-242.500000	-1565.000000	1018.767578	7123.090332
-242.500000	-1565.000000	1017.626953	6967.978027
-242.500000	-1565.000000	1016.485352	7170.016602
-242.500000	-1565.000000	1015.344727	7166.084473
-242.500000	-1565.000000	1014.202148	7008.881348
-242.500000	-1565.000000	1013.060547	6987.475586
-242.500000	-1565.000000	1011.917969	6959.513184
-242.500000	-1565.000000	1010.775391	6995.014648
-242.500000	-1565.000000	1009.632813	7058.935059
-242.500000	-1565.000000	1008.489258	7006.916016
-242.500000	-1565.000000	1007.345703	7160.441895
-242.500000	-1565.000000	1006.202148	7208.970703
-242.500000	-1565.000000	1005.058594	7338.331543
-242.500000	-1565.000000	1003.914063	7530.986816
-242.500000	-1565.000000	1002.769531	7745.389648
-242.500000	-1565.000000	1001.625000	7669.250488
-242.500000	-1565.000000	1000.479492	7368.278320
-242.500000	-1565.000000	999.333984	7263.891113
-242.500000	-1565.000000	998.188477	7205.378906
-242.500000	-1565.000000	997.042969	7236.338867
-242.500000	-1565.000000	995.896484	7125.514160
-242.500000	-1565.000000	994.750000	7180.461914
-242.500000	-1565.000000	993.603516	7156.901855
-242.500000	-1565.000000	992.456055	7235.786621
-242.500000	-1565.000000	991.308594	7107.634277
-242.500000	-1565.000000	990.161133	7138.564941
-242.500000	-1565.000000	989.012695	7302.328613
-242.500000	-1565.000000	987.865234	7296.179688
-242.500000	-1565.000000	986.716797	7091.945801
-242.500000	-1565.000000	985.567383	7157.665527
-242.500000	-1565.000000	984.418945	7236.405762
-242.500000	-1565.000000	983.269531	7304.229980
-242.500000	-1565.000000	982.119141	7243.715820
-242.500000	-1565.000000	980.969727	7261.498047
-242.500000	-1565.000000	979.819336	7468.370117
-242.500000	-1565.000000	978.668945	7653.409180
-242.500000	-1565.000000	977.518555	7686.280762
-242.500000	-1565.000000	976.367188	7966.737793
-242.500000	-1565.000000	975.215820	8227.511719
-242.500000	-1565.000000	974.064453	8568.478516
-242.500000	-1565.000000	972.912109	8896.252930
-242.500000	-1565.000000	971.760742	9193.487305
-242.500000	-1565.000000	970.607422	9774.747070
-242.500000	-1565.000000	969.455078	10461.985352
-242.500000	-1565.000000	968.301758	11153.217773
-242.500000	-1565.000000	967.148438	12177.925781
-242.500000	-1565.000000	965.995117	12738.359375
-242.500000	-1565.000000	964.840820	13655.999023
-242.500000	-1565.000000	963.687500	14391.233398
-242.500000	-1565.000000	962.532227	14913.879883
-242.500000	-1565.000000	961.377930	15505.542969
-242.500000	-1565.000000	960.222656	15540.650391
-242.500000	-1565.000000	959.067383	15484.852539
-242.500000	-1565.000000	957.912109	15082.942383
-242.500000	-1565.000000	956.755859	14674.741211
-242.500000	-1565.000000	955.599609	14152.139648
-242.500000	-1565.000000	954.443359	13270.946289
-242.500000	-1565.000000	953.286133	12751.111328
-242.500000	-1565.000000	952.129883	12220.729492
-242.500000	-1565.000000	950.972656	11543.720703
-242.500000	-1565.000000	949.814453	11022.538086
-242.500000	-1565.000000	948.656250	10501.614258
-242.500000	-1565.000000	947.498047	10227.018555
-242.500000	-1565.000000	946.339844	9823.080078
-242.500000	-1565.000000	945.180664	9473.277344
-242.500000	-1565.000000	944.022461	9123.647461
-242.500000	-1565.000000	942.862305	9280.933594
-242.500000	-1565.000000	941.703125	8884.095703
-242.500000	-1565.000000	940.542969	8651.255859
-242.500000	-1565.000000	939.382813	8478.863281
-242.500000	-1565.000000	938.222656	8353.948242
-242.500000	-1565.000000	937.061523	8328.162109
-242.500000	-1565.000000	935.900391	8059.085938
-242.500000	-1565.000000	934.739258	7988.179688
-242.500000	-1565.000000	933.577148	7852.746582
-242.500000	-1565.000000	932.415039	7796.984863
-242.500000	-1565.000000	931.252930	7724.042480
-242.500000	-1565.000000	930.090820	7657.586426
-242.500000	-1565.000000	928.927734	7541.715820
-242.500000	-1565.000000	927.764648	7580.653320
-242.500000	-1565.000000	926.600586	7424.030273
-242.500000	-1565.000000	925.437500	7377.045410
-242.500000	-1565.000000	924.273438	7375.184570
-242.500000	-1565.000000	923.108398	7308.908203
-242.500000	-1565.000000	921.944336	7523.870117
-242.500000	-1565.000000	920.779297	7320.238770
-242.500000	-1565.000000	919.614258	7292.642090
-242.500000	-1565.000000	918.448242	7310.102539
-242.500000	-1565.000000	917.283203	7269.652832
-242.500000	-1565.000000	916.116211	7194.920410
-242.500000	-1565.000000	914.950195	7167.377441
-242.500000	-1565.000000	913.783203	7384.127930
-242.500000	-1565.000000	912.616211	7180.882813
-242.500000	-1565.000000	911.449219	7086.967285
-242.500000	-1565.000000	910.282227	7140.839355
-242.500000	-1565.000000	909.114258	7042.697266
-242.500000	-1565.000000	907.945313	7167.173828
-242.500000	-1565.000000	906.777344	7233.817871
-242.500000	-1565.000000	905.608398	7202.032227
-242.500000	-1565.000000	904.439453	7133.907715
-242.500000	-1565.000000	903.270508	7065.816406
-242.500000	-1565.000000	902.100586	7140.962402
-242.500000	-1565.000000	900.930664	7113.500977
-242.500000	-1565.000000	899.759766	7034.781250
-242.500000	-1565.000000	898.589844	7005.222168
-242.500000	-1565.000000	897.418945	7101.653809
-242.500000	-1565.000000	896.248047	7121.187012
-242.500000	-1565.000000	895.076172	7130.038574
-242.500000	-1565.000000	893.904297	7207.157715
-242.500000	-1565.000000	892.732422	7177.585938
-242.500000	-1565.000000	891.559570	7171.484863
-242.500000	-1565.000000	890.387695	7097.164063
-242.500000	-1565.000000	889.214844	7216.834961
-242.500000	-1565.000000	888.041016	7155.322754
-242.500000	-1565.000000	886.867188	7049.104492
-242.500000	-1565.000000	885.693359	7275.178223
-242.500000	-1565.000000	884.519531	7066.780273
-242.500000	-1565.000000	883.344727	7111.795898
-242.500000	-1565.000000	882.169922	7329.163086
-242.500000	-1565.000000	880.995117	7216.646973
-242.500000	-1565.000000	879.820313	7282.855957
-242.500000	-1565.000000	878.644531	7323.511230
-242.500000	-1565.000000	877.468750	7300.367188
-242.500000	-1565.000000	876.291992	7389.877930
-242.500000	-1565.000000	875.115234	7279.608398
-242.500000	-1565.000000	873.938477	7207.631348
-242.500000	-1565.000000	872.761719	7258.865234
-242.500000	-1565.000000	871.583984	7254.869141
-242.500000	-1565.000000	870.406250	7352.759277
-242.500000	-1565.000000	869.228516	7316.906738
-242.500000	-1565.000000	868.049805	7170.752441
-242.500000	-1565.000000	866.871094	7181.624023
-242.500000	-1565.000000	865.692383	7198.850098
-242.500000	-1565.000000	864.512695	7353.857910
-242.500000	-1565.000000	863.333008	7148.498047
-242.500000	-1565.000000	862.153320	7250.465820
-242.500000	-1565.000000	860.972656	7278.241699
-242.500000	-1565.000000	859.791992	7246.706543
-242.500000	-1565.000000	858.611328	7426.899414
-242.500000	-1565.000000	857.430664	7206.963379
-242.500000	-1565.000000	856.249023	7459.015137
-242.500000	-1565.000000	855.067383	7543.811523
-242.500000	-1565.000000	853.884766	7315.552246
-242.500000	-1565.000000	852.703125	7358.050781
-242.500000	-1565.000000	851.519531	7364.590820
-242.500000	-1565.000000	850.336914	7485.243652
-242.500000	-1565.000000	849.153320	7424.136719
-242.500000	-1565.000000	847.969727	7367.284668
-242.500000	-1565.000000	846.786133	7369.586426
-242.500000	-1565.000000	845.601563	7354.996582
-242.500000	-1565.000000	844.416992	7374.181641
-242.500000	-1565.000000	843.232422	7454.543945
-242.500000	-1565.000000	842.046875	7385.094238
-242.500000	-1565.000000	840.862305	7364.183105
-242.500000	-1565.000000	839.675781	7455.022461
-242.500000	-1565.000000	838.490234	7467.825195
-242.500000	-1565.000000	837.303711	7404.760254
-242.500000	-1565.000000	836.117188	7495.513184
-242.500000	-1565.000000	834.929688	7485.123535
-242.500000	-1565.000000	833.742188	7525.270996
-242.500000	-1565.000000	832.554688	7470.670898
-242.500000	-1565.000000	831.367188	7281.412598
-242.500000	-1565.000000	830.178711	7466.747070
-242.500000	-1565.000000	828.990234	7281.792969
-242.500000	-1565.000000	827.800781	7368.195313
-242.500000	-1565.000000	826.612305	7401.994629
-242.500000	-1565.000000	825.422852	7246.622559
-242.500000	-1565.000000	824.232422	7272.028320
-242.500000	-1565.000000	823.042969	7200.792969
-242.500000	-1565.000000	821.851563	7167.393555
-242.500000	-1565.000000	820.661133	7190.696289
-242.500000	-1565.000000	819.469727	7333.624023
-242.500000	-1565.000000	818.278320	7205.785156
-242.500000	-1565.000000	817.086914	7289.891113
-242.500000	-1565.000000	815.895508	7403.312988
-242.500000	-1565.000000	814.703125	7407.645020
-242.500000	-1565.000000	813.509766	7476.953613
-242.500000	-1565.000000	812.317383	7671.959473
-242.500000	-1565.000000	811.124023	7651.071289
-242.500000	-1565.000000	809.929688	7531.752441
-242.500000	-1565.000000	808.736328	7500.439941
-242.500000	-1565.000000	807.541992	7467.049316
-242.500000	-1565.000000	806.347656	7195.093750
-242.500000	-1565.000000	805.152344	7147.152832
-242.500000	-1565.000000	803.957031	7199.637695
-242.500000	-1565.000000	802.761719	7055.525391
-242.500000	-1565.000000	801.566406	7055.739258
-242.500000	-1565.000000	800.370117	7112.381836
-242.500000	-1565.000000	799.172852	7110.487793
-242.500000	-1565.000000	797.976563	7146.193359
-242.500000	-1565.000000	796.779297	6996.014648
-242.500000	-1565.000000	795.582031	6877.231445
-242.500000	-1565.000000	794.383789	6931.751465
-242.500000	-1565.000000	793.186523	6984.154297
-242.500000	-1565.000000	791.987305	7001.063965
-242.500000	-1565.000000	790.789063	7070.102051
-242.500000	-1565.000000	789.589844	6838.858887
-242.500000	-1565.000000	788.390625	6903.731934
-242.500000	-1565.000000	787.191406	6960.232422
-242.500000	-1565.000000	785.991211	7018.785156
-242.500000	-1565.000000	784.791016	7071.056152
-242.500000	-1565.000000	783.589844	7144.120117
-242.500000	-1565.000000	782.388672	7013.140137
-242.500000	-1565.000000	781.187500	7025.825195
-242.500000	-1565.000000	779.986328	6980.246582
-242.500000	-1565.000000	778.784180	6965.891113
-242.500000	-1565.000000	777.582031	6924.508789
-242.500000	-1565.000000	776.379883	7024.510742
-242.500000	-1565.000000	775.176758	6970.662109
-242.500000	-1565.000000	773.973633	7014.495605
-242.500000	-1565.000000	772.769531	6937.826660
-242.500000	-1565.000000	771.566406	6832.124512
-242.500000	-1565.000000	770.361328	7062.801758
-242.500000	-1565.000000	769.157227	7085.802246
-242.500000	-1565.000000	767.952148	6903.367676
-242.500000	-1565.000000	766.747070	7005.222168
-242.500000	-1565.000000	765.541992	7053.100586
-242.500000	-1565.000000	764.335938	6953.749512
-242.500000	-1565.000000	763.129883	7007.831055
-242.500000	-1565.000000	761.922852	7078.458984
-242.500000	-1565.000000	760.716797	6987.463379
-242.500000	-1565.000000	759.509766	7024.918945
-242.500000	-1565.000000	758.301758	6917.420410
-242.500000	-1565.000000	757.093750	6896.914551
-242.500000	-1565.000000	755.885742	6986.093262
-242.500000	-1565.000000	754.677734	7050.396484
-242.500000	-1565.000000	753.468750	7073.299316
-242.500000	-1565.000000	752.259766	7013.481445
-242.500000	-1565.000000	751.049805	7050.848145
-242.500000	-1565.000000	749.840820	7071.661133
-242.500000	-1565.000000	748.629883	7113.120117
-242.500000	-1565.000000	747.419922	7020.304199
-242.500000	-1565.000000	746.208984	7119.567383
-242.500000	-1565.000000	744.998047	7132.075684
-242.500000	-1565.000000	743.787109	6956.776855
-242.500000	-1565.000000	742.575195	6907.424805
-242.500000	-1565.000000	741.363281	7062.294434
-242.500000	-1565.000000	740.150391	6996.440918
-242.500000	-1565.000000	738.937500	7177.997070
-242.500000	-1565.000000	737.724609	6932.847168
-242.500000	-1565.000000	736.511719	7093.715332
-242.500000	-1565.000000	735.297852	6881.675781
-242.500000	-1565.000000	734.083984	6999.223145
-242.500000	-1565.000000	732.869141	6968.482910
-242.500000	-1565.000000	731.654297	7139.448730
-242.500000	-1565.000000	730.439453	7005.808105
-242.500000	-1565.000000	729.223633	7034.737793
-242.500000	-1565.000000	728.007813	7034.860840
-242.500000	-1565.000000	726.791992	7020.591309
-242.500000	-1565.000000	725.576172	7018.659668
-242.500000	-1565.000000	724.359375	7098.915039
