#Wave		#Intensity
1819.687500	2102.329102
1818.722656	2102.329102
1817.757813	2122.602783
1816.792969	2052.177979
1815.828125	2116.493652
1814.863281	2154.880859
1813.897461	2182.893799
1812.931641	2140.995117
1811.965820	2112.056152
1811.000000	2145.235596
1810.033203	2124.069824
1809.067383	2164.991943
1808.100586	2079.180176
1807.132813	2133.021729
1806.166016	2181.669922
1805.199219	2103.663818
1804.231445	2191.053955
1803.263672	2069.164795
1802.295898	2153.942139
1801.327148	2099.248779
1800.358398	2065.231689
1799.390625	2196.411865
1798.420898	2118.521240
1797.452148	2239.313477
1796.483398	2130.496094
1795.513672	2176.449951
1794.543945	2173.398438
1793.574219	2144.572266
1792.603516	2175.030762
1791.633789	2238.970459
1790.663086	2204.996826
1789.692383	2109.229248
1788.721680	2188.590576
1787.750000	2242.174561
1786.779297	2203.082520
1785.807617	2246.347900
1784.835938	2245.860596
1783.863281	2204.221191
1782.891602	2188.314453
1781.918945	2210.978027
1780.946289	2246.483887
1779.973633	2289.683350
1779.000000	2219.818115
1778.027344	2242.455322
1777.053711	2190.607178
1776.080078	2210.673584
1775.106445	2176.823975
1774.131836	2320.074219
1773.157227	2293.913330
1772.182617	2236.979492
1771.208008	2208.282959
1770.233398	2223.190918
1769.257813	2150.927246
1768.283203	2350.385986
1767.307617	2229.437256
1766.331055	2385.238770
1765.355469	2231.035645
1764.378906	2292.015625
1763.403320	2393.935059
1762.425781	2347.341797
1761.449219	2380.105469
1760.472656	2361.680908
1759.495117	2322.799072
1758.517578	2296.722168
1757.540039	2385.723389
1756.561523	2328.966064
1755.583984	2354.023438
1754.605469	2356.071533
1753.626953	2368.337891
1752.648438	2401.033447
1751.668945	2403.069824
1750.690430	2333.616211
1749.710938	2371.403320
1748.731445	2317.298828
1747.750977	2349.969971
1746.771484	2428.545166
1745.791016	2315.802979
1744.810547	2391.801514
1743.830078	2279.115967
1742.849609	2344.894531
1741.868164	2372.420898
1740.886719	2399.935791
1739.905273	2511.494629
1738.923828	2518.594727
1737.941406	2439.125732
1736.959961	2466.602295
1735.977539	2491.522217
1734.995117	2460.453857
1734.011719	2556.592773
1733.029297	2497.547363
1732.045898	2644.492676
1731.062500	2618.502686
1730.079102	2595.065674
1729.094727	2604.673340
1728.111328	2611.736328
1727.126953	2738.178955
1726.142578	2811.237549
1725.158203	2709.076172
1724.172852	2802.416992
1723.187500	2766.285889
1722.202148	2834.201172
1721.216797	2919.844727
1720.231445	2825.377930
1719.245117	2903.379395
1718.258789	2915.433350
1717.272461	2846.374512
1716.286133	2868.571533
1715.299805	2786.884521
1714.312500	2852.145752
1713.325195	2909.781494
1712.337891	2982.583984
1711.350586	2873.097168
1710.362305	2834.520264
1709.375000	2841.504639
1708.386719	2921.848633
1707.397461	2984.453857
1706.409180	3097.605225
1705.419922	3026.155762
1704.431641	3002.760742
1703.442383	3151.214111
1702.452148	3024.215820
1701.462891	3101.874268
1700.472656	3192.126465
1699.482422	3284.864990
1698.492188	3319.504150
1697.501953	3200.176758
1696.510742	3191.923584
1695.519531	3337.559814
1694.528320	3195.604980
1693.537109	3439.522461
1692.545898	3453.914795
1691.553711	3375.040283
1690.561523	3457.480957
1689.569336	3363.521973
1688.577148	3453.486816
1687.583984	3432.602783
1686.591797	3424.317139
1685.598633	3584.696777
1684.605469	3531.079590
1683.611328	3535.359131
1682.618164	3632.718994
1681.624023	3526.306396
1680.629883	3694.037109
1679.634766	3605.255371
1678.640625	3632.136475
1677.645508	3643.927979
1676.650391	3525.063232
1675.655273	3632.327393
1674.660156	3696.851318
1673.664063	3716.151367
1672.668945	3597.372070
1671.672852	3724.608154
1670.675781	3723.814941
1669.679688	3680.373047
1668.682617	3574.243408
1667.686523	3570.974854
1666.688477	3640.415527
1665.691406	3584.494629
1664.694336	3518.572998
1663.696289	3572.947021
1662.698242	3592.227051
1661.700195	3448.705811
1660.701172	3407.908691
1659.703125	3462.259277
1658.704102	3413.967529
1657.705078	3478.303223
1656.706055	3470.058105
1655.706055	3474.322754
1654.707031	3461.080078
1653.707031	3355.333740
1652.707031	3412.113770
1651.706055	3446.377197
1650.706055	3430.652588
1649.705078	3524.852051
1648.704102	3559.069092
1647.703125	3545.827393
1646.701172	3702.355469
1645.700195	3741.504639
1644.698242	3730.727783
1643.696289	3754.884521
1642.694336	4050.921387
1641.691406	4079.987305
1640.688477	4176.361328
1639.685547	4247.766113
1638.682617	4329.109375
1637.679688	4131.340820
1636.675781	3953.585693
1635.671875	4032.448730
1634.667969	3842.339111
1633.664063	3667.248047
1632.660156	3678.915039
1631.655273	3469.092285
1630.650391	3440.987061
1629.645508	3388.018555
1628.639648	3364.916260
1627.634766	3254.796875
1626.628906	3313.768799
1625.623047	3258.386230
1624.617188	3190.602539
1623.610352	3175.019043
1622.604492	3142.055420
1621.597656	3101.655518
1620.590820	3083.617676
1619.583008	3117.715088
1618.576172	3176.614990
1617.568359	3173.459717
1616.560547	3160.383057
1615.552734	3117.549805
1614.544922	2978.029297
1613.536133	3150.934326
1612.527344	2959.415771
1611.518555	3087.646484
1610.509766	3072.126221
1609.500000	3046.704590
1608.491211	3135.211182
1607.481445	3176.637207
1606.470703	3341.816406
1605.460938	3167.864990
1604.450195	3179.564941
1603.440430	3267.948730
1602.429688	3143.589600
1601.417969	3073.684570
1600.407227	3137.311768
1599.395508	3215.742188
1598.383789	3071.729248
1597.372070	2999.427490
1596.360352	3095.128174
1595.347656	3017.912598
1594.334961	2953.075195
1593.322266	2996.883789
1592.309570	2988.843994
1591.296875	3040.028809
1590.283203	3083.790527
1589.269531	3093.002686
1588.255859	2956.717529
1587.241211	2938.832275
1586.227539	2928.349121
1585.212891	3073.128662
1584.198242	3025.663086
1583.183594	2995.460938
1582.167969	3130.282471
1581.153320	3033.587646
1580.137695	2973.861084
1579.122070	3022.456055
1578.105469	3078.412598
1577.089844	2979.350098
1576.073242	3052.509766
1575.056641	2985.464111
1574.040039	2950.409424
1573.022461	2959.616211
1572.005859	3005.683594
1570.988281	3029.617188
1569.970703	2913.514893
1568.953125	3057.804932
1567.934570	3005.589844
1566.916016	2950.941650
1565.897461	3009.223877
1564.878906	3023.309326
1563.860352	2951.517578
1562.840820	3026.932617
1561.821289	3004.218750
1560.801758	2988.870117
1559.782227	3066.680176
1558.761719	2955.740723
1557.741211	3072.730225
1556.720703	3091.676758
1555.700195	2968.555664
1554.679688	2985.067139
1553.658203	2974.640625
1552.636719	3093.948975
1551.615234	3154.473145
1550.593750	3065.722168
1549.571289	3089.533447
1548.549805	3101.106201
1547.527344	3083.332031
1546.504883	3072.898926
1545.481445	3106.464355
1544.458008	3191.330566
1543.435547	2968.333496
1542.412109	2955.490479
1541.387695	3050.102539
1540.364258	3056.779541
1539.339844	3051.248535
1538.315430	3045.719727
1537.291016	2996.273682
1536.265625	3012.713623
1535.241211	3060.852295
1534.215820	3021.187744
1533.190430	3079.055420
1532.164063	3095.463135
1531.138672	2931.536377
1530.112305	2991.822021
1529.085938	3047.210205
1528.059570	3143.974854
1527.033203	3223.654785
1526.005859	3081.782471
1524.978516	3022.717529
1523.951172	3075.606445
1522.923828	3082.250977
1521.895508	3096.188965
1520.867188	3156.322998
1519.838867	3063.267822
1518.810547	3048.032715
1517.782227	3074.116211
1516.752930	3066.173828
1515.723633	3029.085205
1514.694336	3084.298584
1513.665039	3095.782959
1512.634766	3070.849121
1511.604492	3106.601563
1510.574219	3122.926270
1509.543945	3212.023926
1508.513672	3116.746826
1507.482422	3089.408936
1506.451172	3100.874023
1505.419922	3090.518311
1504.388672	3240.112549
1503.356445	3103.740479
1502.324219	3151.527588
1501.291992	3182.341064
1500.259766	3171.978027
1499.226563	3164.040283
1498.194336	3240.816895
1497.161133	3194.150391
1496.127930	3193.470215
1495.093750	3272.609619
1494.060547	3201.782959
1493.026367	3169.670166
1491.992188	3294.690918
1490.957031	3240.821289
1489.922852	3302.951904
1488.887695	3343.314697
1487.852539	3441.624268
1486.817383	3291.181641
1485.782227	3333.934814
1484.746094	3354.946533
1483.709961	3375.949219
1482.673828	3481.383789
1481.637695	3461.344482
1480.600586	3376.201172
1479.563477	3479.156494
1478.526367	3591.709717
1477.489258	3595.763428
1476.452148	3558.853516
1475.414063	3729.132813
1474.375977	3644.039795
1473.337891	3669.749756
1472.299805	3743.597412
1471.260742	3786.123047
1470.221680	3903.229492
1469.182617	3931.267090
1468.143555	4053.102783
1467.103516	3996.924561
1466.064453	4231.699219
1465.024414	4199.544922
1463.983398	3975.135986
1462.943359	4231.389648
1461.902344	4204.059570
1460.862305	4234.384277
1459.820313	4298.313477
1458.779297	4239.775879
1457.738281	4354.081543
1456.696289	4245.161621
1455.654297	4381.009766
1454.612305	4360.882813
1453.569336	4326.374512
1452.526367	4363.812012
1451.483398	4355.686035
1450.440430	4443.430664
1449.397461	4416.121582
1448.353516	4386.427734
1447.310547	4294.473145
1446.265625	4396.521973
1445.221680	4278.269043
1444.177734	4353.947266
1443.132813	4326.690430
1442.087891	4299.444824
1441.042969	4284.170898
1439.997070	4331.083008
1438.952148	4327.763184
1437.906250	4159.499023
1436.860352	4134.706543
1435.813477	4157.714355
1434.767578	3984.815918
1433.720703	4003.068604
1432.673828	3983.105713
1431.625977	4027.612061
1430.579102	4060.164307
1429.531250	4016.336914
1428.483398	4020.246094
1427.435547	3892.957031
1426.387695	3904.044922
1425.338867	4020.040039
1424.290039	3909.518799
1423.241211	4013.545410
1422.192383	3957.877441
1421.142578	4002.290527
1420.092773	3987.138916
1419.042969	3957.705811
1417.993164	3864.003906
1416.942383	3977.425293
1415.892578	3924.214844
1414.841797	3987.609619
1413.790039	3936.797852
1412.739258	3985.892578
1411.687500	3994.545166
1410.635742	4129.184570
1409.583984	4102.151367
1408.532227	4077.505859
1407.479492	4183.531738
1406.427734	4353.640137
1405.374023	4488.055664
1404.321289	4361.259766
1403.268555	4384.055176
1402.214844	4271.573730
1401.161133	4303.868164
1400.107422	4106.057617
1399.052734	4228.492676
1397.999023	4180.158691
1396.944336	4134.215820
1395.888672	4052.742188
1394.833984	4009.215576
1393.778320	3996.504150
1392.723633	3919.848877
1391.666992	3788.762939
1390.611328	3918.154541
1389.555664	3782.391113
1388.499023	4032.415771
1387.442383	3901.417480
1386.384766	4014.113525
1385.328125	4010.879883
1384.270508	3993.460938
1383.212891	3876.766357
1382.155273	4152.440918
1381.097656	3948.335938
1380.039063	4051.423828
1378.980469	3996.223877
1377.921875	4068.558838
1376.863281	4006.295898
1375.803711	3920.456543
1374.744141	3955.003174
1373.684570	3864.492920
1372.625000	3802.326660
1371.564453	3862.816162
1370.503906	3916.205811
1369.443359	3759.778564
1368.382813	3791.956299
1367.322266	3833.544434
1366.260742	3717.282715
1365.199219	3846.010010
1364.137695	3795.726074
1363.075195	3726.630615
1362.013672	3812.905029
1360.951172	3840.313477
1359.888672	3792.425781
1358.825195	3723.389404
1357.762695	3788.423828
1356.699219	3773.492920
1355.635742	3725.659668
1354.571289	3738.948730
1353.507813	3865.010010
1352.443359	3765.508301
1351.378906	3905.599365
1350.314453	3935.272217
1349.249023	4037.704346
1348.183594	3982.843018
1347.118164	4050.022217
1346.052734	3952.953857
1344.987305	4045.909424
1343.920898	4108.339844
1342.854492	4032.420898
1341.788086	4029.196533
1340.720703	4093.931641
1339.654297	4139.895020
1338.586914	4246.739746
1337.519531	4016.308105
1336.451172	4038.843506
1335.383789	4096.481445
1334.315430	4030.055908
1333.247070	4101.708496
1332.177734	4105.489258
1331.109375	4116.284668
1330.040039	4173.840332
1328.970703	4027.984131
1327.901367	4073.846680
1326.831055	4220.168945
1325.760742	4104.768555
1324.690430	4064.161133
1323.620117	4126.320313
1322.548828	4078.721191
1321.478516	4033.476563
1320.407227	4030.257568
1319.334961	4106.367188
1318.263672	4107.797852
1317.191406	3990.288818
1316.119141	3977.753906
1315.046875	4004.853027
1313.974609	3964.352295
1312.901367	3949.500000
1311.828125	3923.005859
1310.754883	4008.318115
1309.681641	3881.694336
1308.607422	4039.146484
1307.533203	4115.065430
1306.458984	4116.485840
1305.384766	4006.233398
1304.309570	3968.134766
1303.234375	4011.444092
1302.159180	4071.008545
1301.083984	4084.057373
1300.007813	4138.930664
1298.931641	4121.753418
1297.855469	4111.552246
1296.779297	4126.900879
1295.702148	4028.470215
1294.625977	4143.648926
1293.548828	4172.904297
1292.470703	4211.427734
1291.393555	4159.459961
1290.315430	4139.985840
1289.237305	4127.475586
1288.159180	4214.657227
1287.080078	4181.275391
1286.000977	4354.144531
1284.921875	4260.509766
1283.842773	4257.249512
1282.763672	4297.989258
1281.683594	4315.558105
1280.603516	4293.769043
1279.523438	4339.100098
1278.442383	4321.941406
1277.362305	4307.103516
1276.281250	4380.151855
1275.199219	4492.473633
1274.118164	4461.424316
1273.036133	4460.433105
1271.954102	4517.206055
1270.872070	4518.511719
1269.790039	4445.910645
1268.707031	4588.082520
1267.624023	4443.932129
1266.541016	4475.254883
1265.458008	4465.028320
1264.374023	4371.753906
1263.290039	4428.441895
1262.206055	4455.126465
1261.121094	4541.740234
1260.037109	4478.494141
1258.952148	4620.369141
1257.867188	4598.602539
1256.781250	4645.947266
1255.696289	4580.429199
1254.610352	4689.919434
1253.524414	4580.684570
1252.437500	4669.413086
1251.351563	4652.263184
1250.264648	4605.216309
1249.176758	4767.471191
1248.089844	4676.732422
1247.001953	4859.586426
1245.915039	4849.305176
1244.826172	4680.484375
1243.738281	4539.305176
1242.649414	4630.155762
1241.561523	4741.630859
1240.471680	4673.992676
1239.382813	4649.992188
1238.292969	4518.153809
1237.203125	4680.022461
1236.113281	4598.694824
1235.023438	4572.437500
1233.932617	4624.139160
1232.841797	4483.283691
1231.750977	4580.812012
1230.660156	4389.625488
1229.568359	4452.771973
1228.476563	4435.739746
1227.384766	4450.767090
1226.292969	4436.030762
1225.200195	4432.742676
1224.107422	4321.922363
1223.014648	4336.959473
1221.921875	4367.998047
1220.828125	4241.260742
1219.734375	4251.732910
1218.640625	4163.928711
1217.545898	4222.394531
1216.452148	4196.312500
1215.357422	4275.297363
1214.262695	4281.180664
1213.166992	4255.101563
1212.071289	4370.534180
1210.976563	4305.656250
1209.879883	4313.806152
1208.784180	4344.759277
1207.687500	4286.769531
1206.590820	4317.713379
1205.494141	4371.434570
1204.396484	4436.523926
1203.299805	4344.392090
1202.202148	4309.241699
1201.104492	4335.588379
1200.005859	4275.412598
1198.907227	4338.170898
1197.808594	4323.531250
1196.709961	4383.974121
1195.610352	4282.898438
1194.511719	4245.540039
1193.412109	4183.189941
1192.311523	4282.247559
1191.211914	4294.906738
1190.111328	4255.305176
1189.010742	4317.934570
1187.910156	4289.699219
1186.808594	4195.635742
1185.707031	4219.646484
1184.605469	4354.843262
1183.503906	4206.375977
1182.401367	4391.415039
1181.298828	4426.695801
1180.196289	4264.708496
1179.093750	4354.402832
1177.990234	4312.614746
1176.886719	4341.081543
1175.783203	4170.199219
1174.679688	4429.680176
1173.575195	4252.062012
1172.470703	4305.414551
1171.366211	4281.796387
1170.261719	4264.976074
1169.156250	4433.652344
1168.050781	4362.526367
1166.945313	4302.738281
1165.838867	4430.598633
1164.732422	4325.621094
1163.625977	4363.037598
1162.519531	4393.659180
1161.413086	4424.266602
1160.305664	4472.922363
1159.198242	4451.576172
1158.089844	4574.678711
1156.982422	4377.321777
1155.874023	4392.103516
1154.765625	4382.069824
1153.657227	4459.976563
1152.547852	4280.859863
1151.438477	4430.873047
1150.329102	4490.687012
1149.219727	4372.508301
1148.109375	4394.019531
1146.999023	4381.745605
1145.888672	4198.389160
1144.777344	4341.457520
1143.666992	4333.702148
1142.555664	4373.190918
1141.443359	4356.434570
1140.332031	4461.106445
1139.219727	4394.879395
1138.107422	4366.890137
1136.995117	4397.334473
1135.881836	4403.053223
1134.768555	4458.179199
1133.655273	4511.033203
1132.541992	4492.025879
1131.427734	4434.872559
1130.313477	4427.109375
1129.199219	4544.975586
1128.084961	4532.703613
1126.969727	4614.612305
1125.854492	4609.053711
1124.739258	4500.400391
1123.623047	4470.222168
1122.507813	4592.389648
1121.390625	4537.566406
1120.274414	4565.616211
1119.158203	4526.493164
1118.041016	4438.149902
1116.923828	4513.190430
1115.805664	4561.350098
1114.688477	4517.789551
1113.570313	4679.960938
1112.452148	4647.568359
1111.333008	4599.545898
1110.214844	4629.750488
1109.095703	4789.506836
1107.975586	4737.016113
1106.856445	4682.316406
1105.736328	4741.490723
1104.616211	4651.104980
1103.496094	4879.835449
1102.375000	4867.535156
1101.253906	4864.161133
1100.132813	4972.273438
1099.011719	4919.832031
1097.889648	5012.278320
1096.767578	4995.501465
1095.645508	5025.511230
1094.522461	5129.000488
1093.400391	5272.518555
1092.277344	5235.658691
1091.153320	5203.266113
1090.030273	5295.487793
1088.906250	5305.359375
1087.782227	5350.809082
1086.657227	5496.290039
1085.533203	5537.225586
1084.408203	5689.259277
1083.283203	5681.247559
1082.157227	5808.738770
1081.031250	5880.648926
1079.905273	5881.476074
1078.779297	6017.705566
1077.653320	6240.418457
1076.526367	6360.965820
1075.399414	6290.693359
1074.271484	6366.816406
1073.144531	6442.902832
1072.016602	6454.671387
1070.887695	6419.895996
1069.759766	6422.799805
1068.630859	6361.466797
1067.501953	6386.525879
1066.373047	6236.670898
1065.243164	6111.233887
1064.113281	5930.533691
1062.983398	5818.501465
1061.853516	5943.187500
1060.722656	5747.174316
1059.591797	5772.331543
1058.460938	5556.558594
1057.329102	5539.762695
1056.198242	5540.647461
1055.066406	5464.227539
1053.933594	5403.300293
1052.801758	5351.231934
1051.668945	5391.884766
1050.535156	5267.025879
1049.402344	5378.270508
1048.268555	5421.090332
1047.134766	5463.888672
1046.000977	5321.493652
1044.866211	5452.449707
1043.732422	5508.427246
1042.596680	5590.811523
1041.461914	5637.917969
1040.326172	5535.279297
1039.190430	5569.167480
1038.054688	5730.679688
1036.918945	5806.305664
1035.782227	5703.722168
1034.645508	5935.454590
1033.507813	5951.611816
1032.371094	5866.648926
1031.233398	5849.849609
1030.094727	5813.284668
1028.957031	5798.700684
1027.818359	5689.697266
1026.679688	5646.608398
1025.541016	5588.174805
1024.401367	5685.567871
1023.261719	5686.384766
1022.122070	5731.065918
1020.982422	5602.496582
1019.841797	5662.520020
1018.701172	5757.580566
1017.559570	5602.801758
1016.418945	5616.775391
1015.277344	5422.682129
1014.135742	5563.685547
1012.993164	5525.119141
1011.850586	5488.758789
1010.708008	5524.618164
1009.565430	5584.520996
1008.421875	5528.487793
1007.279297	5557.749023
1006.134766	5823.065918
1004.991211	6055.472168
1003.846680	6287.764648
1002.702148	6098.384766
1001.557617	5954.954102
1000.412109	5909.834961
999.266602	5657.387207
998.121094	5675.641602
996.975586	5624.076660
995.829102	5646.690430
994.682617	5638.765625
993.536133	5545.825195
992.388672	5511.773438
991.241211	5630.260254
990.093750	5650.662109
988.945313	5714.608887
987.797852	5637.000000
986.649414	5659.558594
985.500000	5501.479004
984.351563	5591.503906
983.202148	5766.314453
982.051758	5745.323242
980.902344	5933.052246
979.751953	5925.068848
978.601563	6123.523926
977.451172	6282.775879
976.299805	6513.621582
975.148438	6935.434570
973.997070	7105.218750
972.844727	7648.213379
971.692383	8167.069824
970.540039	8709.530273
969.387695	9546.665039
968.234375	10565.510742
967.081055	11377.923828
965.927734	12471.655273
964.773438	13486.845703
963.619141	14624.994141
962.464844	15448.578125
961.310547	15949.174805
960.155273	16107.541992
959.000000	16107.864258
957.843750	15904.831055
956.688477	14994.662109
955.532227	14212.515625
954.375977	13409.139648
953.218750	12584.548828
952.061523	11656.657227
950.904297	10999.238281
949.747070	10549.463867
948.588867	9711.287109
947.430664	9313.858398
946.272461	8890.731445
945.113281	8495.860352
943.954102	8170.205078
942.794922	7840.398438
941.634766	7547.403809
940.475586	7166.189941
939.314453	7024.337402
938.154297	6716.684570
936.993164	6671.926758
935.832031	6525.995117
934.670898	6416.729004
933.508789	6232.196289
932.347656	6125.208008
931.184570	6082.799805
930.022461	6029.659668
928.859375	5942.147949
927.696289	5899.814453
926.533203	5762.956055
925.369141	5806.615234
924.205078	5669.847168
923.041016	5692.034668
921.875977	5654.105469
920.710938	5747.102539
919.545898	5674.848633
918.379883	5754.921387
917.214844	5734.165527
916.048828	5640.527344
914.881836	5626.238770
913.714844	5646.241211
912.547852	5471.288086
911.380859	5587.693359
910.213867	5543.452148
909.045898	5420.029785
907.876953	5412.232910
906.708984	5361.647949
905.540039	5360.284668
904.371094	5339.674805
903.201172	5387.487305
902.032227	5315.583008
900.862305	5348.417480
899.691406	5321.418945
898.521484	5428.982910
897.350586	5406.245605
896.178711	5458.230957
895.007813	5531.529297
893.835938	5457.575684
892.664063	5381.525879
891.491211	5324.705566
890.318359	5376.640137
889.145508	5368.869141
887.972656	5491.080078
886.798828	5408.722656
885.625000	5469.097168
884.451172	5595.443848
883.276367	5547.177734
882.101563	5515.959961
880.926758	5554.965332
879.750977	5510.997559
878.575195	5673.314941
877.399414	5644.218262
876.223633	5593.881836
875.046875	5666.808105
873.870117	5516.650879
872.692383	5481.249023
871.514648	5524.420410
870.336914	5491.155273
869.159180	5629.791992
867.980469	5475.589355
866.801758	5571.737305
865.623047	5491.840820
864.443359	5505.258301
863.263672	5573.770020
862.083984	5585.038086
860.904297	5520.044434
859.723633	5505.906738
858.542969	5783.936035
857.361328	5598.293945
856.179688	5772.468262
854.998047	5665.195313
853.816406	5699.675781
852.633789	5700.307129
851.451172	5688.254395
850.267578	5559.977539
849.084961	5685.291504
847.901367	5688.033691
846.716797	5648.541016
845.533203	5678.732910
844.348633	5749.007324
843.163086	5831.903320
841.978516	5883.114258
840.792969	5759.262695
839.606445	6014.967773
838.420898	5998.639160
837.234375	6016.032715
836.047852	6016.562500
834.860352	5981.288086
833.672852	6154.478516
832.485352	6013.934082
831.297852	6033.399414
830.109375	5899.270020
828.920898	5876.686035
827.731445	5803.646484
826.542969	5699.110352
825.353516	5594.628418
824.163086	5559.537109
822.972656	5518.161133
821.782227	5485.206055
820.591797	5456.466309
819.400391	5583.058594
818.208984	5577.387207
817.017578	5657.727051
815.825195	5610.092285
814.632813	5849.726074
813.440430	5875.427734
812.247070	5892.731934
811.054688	5922.596191
809.860352	5885.420410
808.666992	5705.877930
807.472656	5641.563477
806.277344	5642.158691
805.083008	5515.125977
803.887695	5455.093262
802.692383	5142.065918
801.496094	5289.127930
800.299805	5099.619141
799.103516	5131.692383
797.907227	5180.458496
796.709961	5085.102051
795.512695	5090.008789
794.314453	5065.690918
793.116211	4920.358398
791.917969	5108.879883
790.719727	5040.776367
789.520508	5062.363281
788.321289	5023.488770
787.121094	5026.311523
785.920898	5033.298340
784.720703	5125.673340
783.520508	5036.846680
782.319336	5087.536133
781.118164	5115.305664
779.916016	5132.656738
778.714844	5127.117188
777.511719	4984.338867
776.309570	5078.625000
775.106445	5044.005371
773.903320	5090.435059
772.700195	5105.680664
771.496094	5170.755859
770.291992	5161.056641
769.086914	5039.285645
767.882813	5050.374512
766.676758	5123.687500
765.471680	5093.269043
764.265625	5064.939453
763.059570	5127.822266
761.853516	5149.227051
760.646484	5038.039551
759.439453	5131.939941
758.231445	5153.323242
757.023438	5122.946777
755.815430	5082.239258
754.607422	5109.821289
753.398438	5085.682617
752.189453	5140.125488
750.979492	4907.215820
749.770508	5093.932129
748.560547	5150.391113
747.349609	5074.634277
746.138672	5095.963379
744.927734	5075.995117
743.716797	5056.036621
742.504883	5085.603027
741.292969	5067.712891
740.080078	5037.459473
738.867188	5050.511719
737.654297	5162.477539
736.440430	5076.591309
735.227539	5147.291504
734.012695	5174.709473
732.798828	5045.656250
731.583984	4996.936523
730.369141	5160.163086
729.153320	5037.387695
727.937500	5099.750000
726.721680	5073.678223
725.504883	5107.221191
724.288086	5054.448730
