#Wave		#Intensity
1819.763672	1949.416382
1818.799805	1962.377930
1817.834961	1930.847656
1816.870117	1907.104858
1815.905273	1914.459717
1814.939453	1895.911011
1813.974609	1936.928345
1813.008789	1944.271851
1812.042969	1977.495728
1811.077148	1966.712769
1810.110352	2049.074463
1809.143555	1991.720825
1808.177734	1988.700195
1807.209961	1962.411255
1806.243164	1954.228394
1805.275391	1984.815063
1804.308594	2105.822510
1803.340820	2022.698975
1802.372070	2019.675659
1801.404297	1972.757202
1800.435547	2003.306519
1799.467773	1971.898193
1798.498047	1971.468994
1797.529297	1996.838989
1796.560547	1993.825317
1795.590820	2057.861084
1794.621094	2083.195557
1793.651367	2049.233398
1792.681641	2025.594116
1791.710938	2076.684570
1790.740234	2101.993164
1789.769531	1972.765991
1788.798828	2010.960449
1787.827148	2100.624268
1786.856445	2066.709717
1785.884766	2030.236816
1784.913086	2073.531006
1783.941406	2003.635498
1782.968750	2111.204102
1781.996094	2085.037109
1781.023438	2046.029297
1780.050781	2063.574707
1779.078125	2117.082520
1778.104492	2142.311035
1777.130859	2126.438232
1776.157227	2077.193359
1775.183594	2120.383545
1774.209961	2117.358154
1773.235352	2106.636230
1772.260742	2065.134277
1771.286133	2131.373291
1770.310547	2087.319824
1769.335938	2091.995850
1768.360352	2194.070313
1767.384766	2065.465576
1766.409180	2200.808594
1765.433594	2123.488037
1764.457031	2138.395020
1763.480469	2099.527344
1762.503906	2168.189941
1761.527344	2221.467285
1760.549805	2200.517822
1759.573242	2187.252197
1758.595703	2202.126221
1757.618164	2181.194580
1756.639648	2119.367432
1755.662109	2162.362305
1754.683594	2126.120117
1753.705078	2140.991211
1752.726563	2222.268555
1751.747070	2101.762207
1750.767578	2267.269531
1749.789063	2246.359863
1748.809570	2151.447266
1747.829102	2209.670654
1746.849609	2188.786865
1745.869141	2137.306152
1744.888672	2208.244385
1743.908203	2235.812744
1742.927734	2268.466797
1741.946289	2125.274658
1740.964844	2208.893311
1739.983398	2238.984863
1739.001953	2294.530029
1738.019531	2304.221191
1737.038086	2189.176270
1736.055664	2252.331299
1735.073242	2442.682129
1734.089844	2388.735352
1733.107422	2350.072021
1732.124023	2357.196045
1731.140625	2402.451172
1730.157227	2394.310303
1729.173828	2457.326172
1728.189453	2477.124268
1727.205078	2463.892578
1726.220703	2415.112549
1725.236328	2539.006104
1724.250977	2586.692627
1723.266602	2502.386719
1722.281250	2585.583740
1721.295898	2567.271973
1720.309570	2521.068848
1719.324219	2561.100586
1718.337891	2565.622559
1717.351563	2516.914551
1716.365234	2640.547363
1715.377930	2477.833252
1714.391602	2515.298340
1713.404297	2421.058105
1712.416992	2504.093994
1711.428711	2564.312012
1710.441406	2573.886719
1709.453125	2618.882080
1708.464844	2608.202881
1707.476563	2660.759033
1706.488281	2566.628418
1705.499023	2722.825439
1704.509766	2638.832031
1703.520508	2726.715576
1702.531250	2680.655273
1701.541016	2733.128418
1700.551758	2899.224609
1699.561523	2865.781494
1698.571289	2852.547363
1697.580078	2768.651367
1696.589844	2833.666016
1695.598633	2883.516357
1694.607422	2870.289551
1693.616211	2950.370850
1692.625000	3022.854248
1691.632813	2971.797119
1690.640625	3092.126221
1689.648438	3068.790771
1688.656250	3115.997070
1687.663086	3160.664551
1686.669922	3172.580078
1685.677734	3232.320557
1684.683594	3231.631348
1683.690430	3261.137939
1682.696289	3247.864014
1681.703125	3302.506836
1680.708984	3296.773438
1679.713867	3311.156006
1678.719727	3340.613770
1677.724609	3332.362793
1676.729492	3374.366211
1675.734375	3343.503174
1674.739258	3310.141602
1673.743164	3450.049805
1672.748047	3313.752441
1671.751953	3425.991699
1670.755859	3442.827637
1669.758789	3326.689209
1668.762695	3298.389893
1667.765625	3330.288330
1666.768555	3349.637207
1665.770508	3363.964355
1664.773438	3355.729980
1663.775391	3395.105713
1662.777344	3284.159912
1661.779297	3273.442871
1660.781250	3307.802734
1659.782227	3324.623535
1658.783203	3293.880859
1657.784180	3248.136963
1656.785156	3257.453613
1655.786133	3229.246094
1654.786133	3238.562744
1653.786133	3257.876465
1652.786133	3329.676758
1651.786133	3159.021484
1650.785156	3308.271729
1649.784180	3160.176758
1648.784180	3256.912842
1647.782227	3243.735107
1646.781250	3310.453369
1645.779297	3307.253662
1644.777344	3348.974609
1643.775391	3353.253174
1642.773438	3439.846436
1641.771484	3571.293457
1640.768555	3460.825684
1639.765625	3475.047607
1638.762695	3499.232910
1637.758789	3421.243652
1636.755859	3413.043213
1635.751953	3397.374023
1634.748047	3274.632080
1633.744141	3241.570801
1632.739258	3213.501709
1631.735352	3130.694824
1630.730469	3080.268066
1629.725586	3047.275635
1628.719727	3016.784180
1627.714844	3023.603271
1626.708984	2911.092041
1625.703125	2912.959717
1624.697266	2785.609863
1623.690430	2876.941650
1622.684570	2965.750488
1621.677734	2940.287598
1620.670898	2835.385010
1619.663086	2807.478027
1618.656250	2856.517822
1617.648438	2848.468018
1616.640625	2907.400635
1615.632813	2948.947021
1614.625000	2846.655029
1613.616211	2912.987793
1612.607422	2974.335205
1611.598633	2832.453369
1610.589844	2814.509521
1609.580078	2888.223389
1608.571289	2872.751709
1607.561523	2891.950195
1606.551758	2987.879639
1605.541016	3014.470215
1604.531250	2989.086670
1603.520508	3057.721436
1602.509766	3151.060547
1601.499023	3128.136475
1600.487305	2966.772949
1599.475586	3067.486816
1598.463867	2938.330566
1597.452148	2873.468262
1596.440430	2855.567383
1595.427734	2790.749756
1594.416016	2822.257080
1593.403320	2772.285645
1592.389648	2816.123779
1591.376953	2795.785889
1590.363281	2733.516113
1589.349609	2814.332520
1588.335938	2774.279297
1587.322266	2840.259521
1586.307617	2755.847900
1585.293945	2885.879639
1584.279297	2890.195557
1583.263672	2901.899658
1582.249023	2903.747070
1581.233398	2772.625732
1580.217773	2845.893066
1579.202148	2771.449951
1578.186523	2839.764404
1577.170898	2748.131836
1576.154297	2922.191895
1575.137695	2847.794922
1574.121094	2758.677246
1573.103516	2686.804688
1572.086914	2887.763916
1571.069336	2823.265381
1570.051758	2847.232910
1569.033203	2721.367432
1568.015625	2728.156982
1566.997070	2796.320068
1565.978516	2866.908936
1564.959961	2831.944336
1563.941406	2816.622559
1562.921875	2806.213135
1561.902344	2788.450684
1560.882813	2758.435791
1559.863281	2814.233154
1558.842773	2769.520020
1557.822266	2783.634766
1556.801758	2814.892334
1555.781250	2863.281982
1554.760742	2892.060303
1553.739258	2791.066162
1552.717773	2721.935791
1551.696289	2770.303467
1550.674805	2784.396240
1549.653320	2857.192139
1548.630859	2922.619629
1547.608398	2777.733398
1546.585938	2889.598633
1545.562500	2842.546387
1544.540039	2883.484619
1543.516602	2719.184082
1542.493164	2874.932861
1541.469727	2735.124268
1540.445313	2754.075928
1539.420898	2846.250732
1538.396484	2874.932617
1537.372070	2732.802002
1536.347656	2800.527344
1535.322266	2734.080566
1534.296875	2721.307617
1533.271484	2754.860596
1532.246094	2851.771973
1531.219727	2746.379883
1530.194336	2833.505859
1529.167969	2813.417236
1528.140625	2773.854004
1527.114258	2739.177002
1526.086914	2865.178955
1525.060547	2818.328369
1524.032227	2851.795166
1523.004883	2904.709717
1521.977539	2855.447510
1520.949219	2781.889160
1519.920898	2888.270752
1518.892578	2911.963623
1517.863281	2923.495361
1516.834961	2901.007080
1515.805664	2893.102783
1514.776367	2904.630615
1513.746094	2921.009766
1512.716797	2898.540283
1511.686523	3009.569092
1510.656250	2967.677490
1509.625977	2901.542969
1508.594727	2971.265869
1507.564453	3023.983887
1506.533203	2979.699707
1505.501953	2889.378418
1504.469727	2845.141357
1503.438477	2946.299561
1502.406250	3057.104004
1501.374023	2925.669922
1500.341797	2985.582031
1499.308594	2987.367188
1498.276367	3010.934814
1497.243164	3075.629639
1496.209961	3067.716553
1495.175781	3021.105713
1494.142578	3037.390381
1493.108398	3118.947998
1492.074219	3021.592529
1491.039063	3091.034668
1490.004883	3025.137451
1488.969727	3162.189453
1487.934570	3021.432861
1486.899414	3100.473877
1485.864258	3181.895264
1484.828125	3082.256348
1483.791992	3173.299072
1482.755859	3220.875244
1481.719727	3246.721680
1480.682617	3236.382568
1479.646484	3322.491699
1478.609375	3324.193604
1477.571289	3265.642578
1476.534180	3476.986328
1475.496094	3493.107666
1474.458008	3446.600098
1473.419922	3436.232178
1472.381836	3558.281006
1471.342773	3596.032959
1470.304688	3720.401367
1469.265625	3654.645996
1468.225586	3668.298096
1467.186523	3657.894775
1466.146484	3772.525146
1465.106445	3855.855469
1464.066406	3847.821289
1463.026367	4015.199951
1461.985352	4023.950928
1460.944336	3939.026123
1459.903320	4091.869141
1458.862305	4016.568604
1457.820313	4087.718750
1456.778320	3947.656494
1455.736328	4150.750488
1454.694336	4046.715576
1453.652344	4074.628662
1452.609375	4186.450195
1451.566406	4142.404297
1450.523438	4187.054688
1449.480469	4056.763672
1448.436523	4079.851563
1447.392578	4100.534180
1446.348633	4130.786621
1445.304688	4046.106445
1444.260742	4042.845947
1443.215820	3958.220459
1442.170898	3986.083252
1441.125977	3889.544922
1440.080078	3843.270996
1439.035156	3933.307617
1437.989258	3877.481201
1436.943359	3752.367188
1435.896484	3768.288818
1434.850586	3800.926758
1433.803711	3759.506348
1432.756836	3794.519287
1431.709961	3726.855469
1430.662109	3826.307861
1429.614258	3598.772949
1428.566406	3691.051758
1427.518555	3711.727783
1426.470703	3784.862793
1425.421875	3629.063232
1424.373047	3757.013428
1423.324219	3672.787598
1422.275391	3760.164063
1421.225586	3730.767334
1420.175781	3756.165283
1419.125977	3772.026611
1418.076172	3656.935791
1417.026367	3646.627686
1415.975586	3462.598877
1414.924805	3702.160889
1413.874023	3632.379639
1412.822266	3607.814941
1411.771484	3692.636719
1410.719727	3775.044434
1409.667969	3800.375244
1408.615234	3775.794189
1407.563477	3879.510986
1406.510742	3892.925781
1405.458008	3870.714600
1404.405273	3869.879883
1403.351563	3902.276367
1402.297852	3759.046387
1401.244141	3933.809326
1400.190430	3762.168457
1399.136719	3773.214600
1398.082031	3656.216553
1397.027344	3797.661621
1395.972656	3749.440186
1394.917969	3705.978516
1393.862305	3664.904053
1392.806641	3690.166016
1391.750977	3608.855713
1390.695313	3584.400635
1389.638672	3772.984863
1388.583008	3748.504150
1387.526367	3619.931152
1386.468750	3727.958984
1385.412109	3677.488281
1384.354492	3700.336670
1383.296875	3621.526367
1382.239258	3653.829834
1381.181641	3686.119141
1380.123047	3793.990234
1379.064453	3601.856445
1378.005859	3700.253174
1376.947266	3664.038330
1375.887695	3644.361328
1374.828125	3546.818115
1373.768555	3727.716064
1372.708984	3665.578369
1371.648438	3681.291016
1370.588867	3508.374268
1369.528320	3519.398926
1368.466797	3603.478027
1367.406250	3517.870605
1366.344727	3535.952393
1365.283203	3539.894531
1364.221680	3517.932861
1363.160156	3552.481201
1362.097656	3537.586670
1361.035156	3459.162598
1359.972656	3488.994873
1358.909180	3561.152344
1357.846680	3550.970703
1356.783203	3482.015137
1355.719727	3521.217529
1354.656250	3633.255615
1353.591797	3540.830322
1352.527344	3563.549561
1351.462891	3532.241699
1350.398438	3435.201416
1349.333984	3638.688721
1348.268555	3677.794678
1347.203125	3569.052734
1346.137695	3650.384033
1345.071289	3712.915771
1344.004883	3550.301514
1342.939453	3666.750000
1341.872070	3665.949219
1340.805664	3709.673828
1339.738281	3676.062256
1338.670898	3722.107178
1337.603516	3718.951660
1336.536133	3757.942139
1335.467773	3771.165527
1334.399414	3770.340576
1333.331055	3755.476563
1332.262695	3733.600342
1331.193359	3760.848877
1330.125000	3806.791992
1329.055664	3731.147949
1327.985352	3786.425781
1326.916016	3813.637451
1325.845703	3728.695557
1324.775391	3727.877930
1323.705078	3715.384033
1322.633789	3737.916504
1321.563477	3683.408936
1320.492188	3663.930664
1319.419922	3723.789551
1318.348633	3872.263916
1317.276367	3782.790527
1316.204102	3653.717773
1315.131836	3692.544434
1314.059570	3740.676025
1312.986328	3716.552246
1311.913086	3627.209473
1310.839844	3696.284424
1309.766602	3760.671387
1308.692383	3734.234863
1307.618164	3805.566895
1306.543945	3776.804199
1305.469727	3824.829346
1304.394531	3747.227539
1303.319336	3781.284180
1302.244141	3650.250488
1301.168945	3812.159668
1300.092773	3739.275391
1299.017578	3791.889648
1297.941406	3965.273926
1296.864258	3850.598877
1295.788086	3907.796631
1294.710938	3858.183594
1293.633789	3829.480225
1292.556641	3784.546387
1291.478516	3864.905029
1290.400391	3861.730713
1289.322266	4006.963623
1288.244141	4082.581787
1287.166016	3838.307129
1286.086914	4006.620361
1285.007813	3980.248291
1283.928711	4067.385010
1282.848633	4131.325195
1281.769531	4185.975098
1280.689453	4036.903564
1279.608398	4123.948730
1278.528320	4252.601563
1277.447266	4210.020020
1276.366211	4211.397949
1275.285156	4175.780273
1274.204102	4297.370117
1273.122070	4282.548340
1272.040039	4191.481934
1270.958008	4199.790527
1269.875977	4261.215332
1268.792969	4311.067383
1267.709961	4233.924805
1266.626953	4276.835449
1265.542969	4361.262207
1264.459961	4346.448730
1263.375977	4340.867188
1262.291992	4261.495605
1261.207031	4253.628906
1260.123047	4294.169922
1259.038086	4251.731445
1257.953125	4101.025879
1256.867188	4212.978516
1255.782227	4251.187500
1254.696289	4273.261719
1253.610352	4235.476563
1252.523438	4310.475586
1251.437500	4491.279785
1250.350586	4517.879395
1249.263672	4374.278809
1248.175781	4520.456055
1247.088867	4388.412598
1246.000977	4437.992188
1244.913086	4462.273438
1243.824219	4493.435059
1242.736328	4441.899414
1241.647461	4440.903320
1240.558594	4295.277344
1239.468750	4154.306641
1238.379883	4307.117676
1237.290039	4388.740723
1236.200195	4293.715332
1235.109375	4240.008301
1234.019531	4227.592285
1232.928711	4196.844727
1231.837891	4182.150879
1230.746094	4096.440430
1229.655273	4141.329590
1228.563477	4094.596680
1227.471680	4118.859375
1226.378906	3987.457764
1225.287109	4032.329102
1224.194336	3997.100586
1223.101563	3900.125732
1222.007813	3782.611572
1220.915039	3836.632324
1219.821289	4055.214355
1218.726563	3828.043945
1217.632813	3948.278076
1216.538086	3951.954834
1215.443359	3983.035400
1214.348633	3954.734619
1213.253906	3962.971436
1212.158203	3957.510254
1211.062500	3917.823975
1209.966797	4005.906494
1208.871094	4109.913574
1207.774414	4097.581055
1206.677734	4030.540527
1205.581055	3999.997070
1204.483398	4033.270020
1203.386719	4162.210449
1202.289063	4099.769043
1201.190430	3959.933105
1200.092773	3895.288574
1198.994141	3958.134277
1197.895508	3995.919434
1196.796875	3999.560791
1195.698242	4012.298340
1194.598633	4125.086914
1193.499023	3962.728760
1192.399414	4014.105225
1191.298828	4045.005371
1190.198242	3957.749268
1189.097656	3834.189453
1187.997070	3949.132080
1186.895508	3991.368896
1185.794922	3931.441162
1184.692383	3946.429199
1183.590820	3954.603271
1182.489258	4024.018066
1181.386719	3909.708008
1180.284180	4110.603027
1179.180664	4041.659912
1178.078125	4043.001465
1176.974609	4012.621582
1175.871094	3918.828857
1174.766602	3949.637207
1173.663086	4068.733887
1172.558594	3936.508789
1171.453125	3926.553711
1170.348633	3989.006592
1169.243164	4008.450195
1168.137695	4007.530029
1167.032227	4022.437256
1165.926758	4177.490723
1164.820313	4095.169922
1163.713867	4143.937500
1162.607422	4129.430664
1161.500000	4108.154297
1160.392578	4181.721191
1159.285156	4144.639648
1158.177734	4114.345215
1157.070313	4201.396484
1155.961914	4155.310547
1154.853516	4118.266602
1153.744141	4225.548340
1152.635742	3981.107910
1151.526367	4018.503418
1150.416992	4114.465820
1149.306641	4070.712891
1148.197266	3941.395264
1147.086914	4053.069092
1145.976563	4076.894775
1144.865234	4017.434082
1143.753906	4081.758301
1142.643555	4148.301758
1141.531250	4086.614990
1140.419922	3979.984619
1139.307617	4095.960938
1138.195313	3987.129150
1137.083008	4051.367432
1135.969727	4225.653320
1134.856445	4092.159912
1133.743164	4124.891113
1132.629883	4166.585938
1131.515625	4111.751465
1130.401367	4041.234863
1129.287109	4177.139648
1128.172852	4218.781250
1127.057617	4186.406738
1125.942383	4293.037598
1124.827148	4352.551270
1123.711914	4270.869629
1122.595703	4202.666504
1121.479492	4237.521484
1120.363281	4256.685059
1119.246094	4266.884277
1118.128906	4200.981445
1117.011719	4211.187500
1115.894531	4196.780762
1114.776367	4240.530273
1113.658203	4413.949707
1112.540039	4334.672852
1111.421875	4427.527832
1110.302734	4397.442383
1109.183594	4456.728516
1108.064453	4413.248535
1106.944336	4497.063477
1105.825195	4496.008301
1104.705078	4526.198730
1103.583984	4652.321289
1102.463867	4648.997559
1101.342773	4580.996094
1100.221680	4707.015137
1099.099609	4683.615723
1097.978516	4678.056152
1096.856445	4630.162598
1095.734375	4724.861328
1094.611328	4795.016113
1093.488281	4764.939941
1092.365234	4888.477051
1091.242188	4851.714844
1090.119141	4821.644043
1088.995117	4971.771973
1087.871094	5168.531738
1086.746094	5062.808105
1085.622070	5039.381836
1084.497070	5120.418457
1083.372070	5372.500977
1082.246094	5526.723633
1081.120117	5418.815430
1079.994141	5641.781738
1078.868164	5793.608887
1077.742188	5909.854980
1076.615234	5846.328613
1075.488281	5869.341309
1074.360352	5938.913086
1073.233398	6032.839355
1072.105469	6133.370117
1070.977539	5990.082031
1069.848633	5933.268555
1068.719727	5905.276367
1067.590820	6047.813477
1066.461914	5734.202148
1065.333008	5799.239746
1064.203125	5589.842285
1063.073242	5495.588867
1061.942383	5472.159180
1060.812500	5448.739746
1059.681641	5283.838867
1058.549805	5165.431641
1057.418945	5113.372559
1056.287109	5065.756348
1055.155273	5082.214355
1054.023438	5078.790039
1052.890625	5070.951172
1051.757813	4937.309570
1050.625000	4960.398926
1049.492188	4998.918945
1048.358398	4984.486816
1047.224609	5036.210938
1046.090820	5015.161621
1044.956055	5018.365234
1043.821289	4975.294922
1042.686523	5062.213867
1041.551758	5149.090820
1040.416016	5081.797363
1039.280273	5155.417969
1038.144531	5213.597168
1037.007813	5256.345703
1035.872070	5373.862793
1034.734375	5170.243652
1033.597656	5371.270996
1032.459961	5378.767090
1031.323242	5445.593750
1030.184570	5305.864258
1029.046875	5291.402832
1027.908203	5224.244141
1026.769531	5220.785156
1025.630859	5217.327148
1024.491211	5152.426758
1023.351563	5306.942383
1022.211914	5217.923828
1021.072266	5067.548828
1019.931641	4991.782715
1018.791016	5111.116699
1017.649414	5059.478516
1016.508789	5071.393555
1015.367188	5052.640137
1014.225586	5128.047852
1013.083008	5037.049316
1011.941406	5136.496094
1010.798828	5019.281738
1009.655273	4996.184570
1008.512695	5012.462891
1007.369141	5238.626953
1006.225586	5405.661621
1005.081055	5721.216797
1003.937500	5916.453125
1002.792969	6041.695801
1001.647461	5882.990723
1000.502930	5698.163574
999.357422	5382.465332
998.211914	5165.117188
997.065430	5246.753418
995.918945	5121.147949
994.772461	5154.781738
993.625977	5131.718262
992.478516	5165.331055
991.332031	5142.274414
990.183594	5188.937012
989.036133	5061.346680
987.887695	5125.422852
986.739258	5189.466797
985.590820	5218.658203
984.441406	5186.914063
983.291992	5181.287109
982.142578	5386.602539
980.993164	5465.717773
979.842773	5529.577637
978.692383	5708.576172
977.541016	5815.792969
976.390625	6061.961426
975.239258	6483.893555
974.087891	6757.995117
972.935547	7031.959961
971.783203	7444.656738
970.630859	8254.126953
969.478516	9045.844727
968.325195	9936.907227
967.171875	10855.706055
966.018555	11999.429688
964.864258	12826.259766
963.709961	13704.664063
962.555664	14582.628906
961.401367	15163.552734
960.246094	15389.215820
959.090820	15192.801758
957.934570	14938.072266
956.779297	14043.267578
955.623047	13460.276367
954.466797	12555.471680
953.309570	11674.888672
952.152344	11056.184570
950.995117	10321.139648
949.837891	9653.407227
948.679688	9083.164063
947.521484	8690.203125
946.363281	8247.802734
945.204102	7943.698242
944.044922	7380.916504
942.885742	7172.058594
941.726563	7010.731445
940.566406	6771.894043
939.406250	6582.733887
938.245117	6301.036621
937.084961	6305.916992
935.923828	6022.274902
934.762695	5956.185059
933.600586	5793.285645
932.438477	5718.678223
931.276367	5682.824219
930.114258	5526.564453
928.951172	5426.278809
927.788086	5313.146484
926.624023	5442.883789
925.460938	5437.214844
924.296875	5399.332031
923.131836	5372.203125
921.967773	5334.354004
920.802734	5438.164063
919.637695	5263.000977
918.471680	5216.625000
917.306641	5217.449707
916.139648	5222.560547
914.973633	5214.807617
913.806641	5159.915527
912.639648	5124.331055
911.472656	5116.605957
910.304688	5053.212891
909.137695	5034.804688
907.968750	5057.066895
906.800781	5023.687988
905.631836	4973.213379
904.462891	4950.562988
903.293945	4863.786133
902.124023	4956.592285
900.954102	4936.097656
899.783203	4883.568359
898.613281	4912.223145
897.442383	4960.079102
896.271484	4922.523926
895.099609	4763.341797
893.927734	4862.402344
892.755859	5046.731934
891.583008	5079.560547
890.411133	5069.732910
889.238281	5076.959961
888.064453	5156.631348
886.890625	5172.351563
885.716797	5026.202148
884.542969	5122.855957
883.369141	5157.727539
882.194336	5175.555664
881.018555	5110.398926
879.843750	5204.800781
878.667969	5090.758789
877.492188	5165.981934
876.315430	5260.292969
875.138672	5275.936523
873.961914	5246.960938
872.785156	5109.688965
871.607422	5140.218262
870.429688	5334.173340
869.251953	5254.278320
868.073242	5178.666992
866.894531	5117.940430
865.715820	5082.689453
864.536133	5087.733398
863.356445	5071.580566
862.176758	5148.661621
860.996094	5232.056641
859.816406	5253.994629
858.634766	5229.342773
857.454102	5247.034180
856.272461	5275.295898
855.090820	5466.435059
853.909180	5310.622559
852.726563	5300.783203
851.543945	5259.240723
850.360352	5308.589844
849.177734	5235.373535
847.994141	5200.213867
846.809570	5139.731445
845.625977	5051.835449
844.441406	5092.727539
843.255859	5215.886230
842.071289	5153.349121
840.885742	5249.010254
839.700195	5241.312012
838.513672	5067.102051
837.327148	5044.702637
836.140625	5237.194824
834.954102	5124.197266
833.766602	5169.175781
832.579102	5218.339355
831.390625	5088.596680
830.202148	4961.024902
829.013672	4995.478027
827.825195	4977.341797
826.635742	4969.725586
825.446289	4999.942383
824.256836	4878.860352
823.066406	4986.805176
821.875977	4953.989746
820.685547	5032.462891
819.494141	4961.870117
818.302734	5057.084961
817.111328	5116.585449
815.918945	5108.940918
814.726563	5235.488770
813.534180	5290.699707
812.340820	5339.593262
811.147461	5338.178711
809.954102	5196.432617
808.759766	5021.257813
807.565430	5026.205566
806.371094	4972.550781
805.176758	4828.955566
803.981445	4741.912109
802.786133	4765.745117
801.589844	4749.842773
800.393555	4644.076172
799.197266	4787.014160
798.000977	4664.580566
796.803711	4561.006836
795.606445	4599.458496
794.408203	4635.801758
793.209961	4682.558105
792.011719	4618.722656
790.813477	4713.424805
789.614258	4687.144043
788.415039	4652.538086
787.214844	4632.537598
786.014648	4654.213379
784.814453	4644.634766
783.614258	4745.418945
782.413086	4552.631348
781.211914	4670.033203
780.010742	4718.712402
778.808594	4704.963867
777.606445	4712.016602
776.403320	4748.168945
775.200195	4719.873047
773.997070	4718.602051
772.793945	4669.554688
771.589844	4743.055176
770.385742	4606.830078
769.181641	4659.550781
767.976563	4666.592285
766.771484	4692.298828
765.565430	4734.581055
764.360352	4766.473145
763.154297	4756.892578
761.947266	4736.955078
760.740234	4727.385742
759.533203	4634.979004
758.326172	4716.541016
757.118164	4692.492188
755.910156	4742.952148
754.702148	4671.325195
753.493164	4703.147461
752.284180	4639.838379
751.074219	4675.784180
749.864258	4682.777344
748.654297	4724.887695
747.444336	4760.777832
746.233398	4606.680664
745.022461	4652.902832
743.810547	4657.824219
742.599609	4642.110352
741.386719	4661.467773
740.174805	4722.054688
738.961914	4654.795898
737.749023	4682.375000
736.535156	4761.446289
735.322266	4646.854004
734.107422	4604.395996
732.893555	4675.186035
731.678711	4661.554688
730.463867	4551.226563
729.248047	4646.652832
728.032227	4604.248047
726.816406	4730.442871
725.599609	4796.964844
724.383789	4748.386719
