#Wave		#Intensity
1819.643555	2058.241699
1818.678711	2037.503784
1817.713867	2119.991699
1816.749023	2067.705811
1815.784180	2062.072754
1814.819336	2079.751709
1813.853516	2144.032715
1812.887695	2107.320313
1811.921875	1987.799194
1810.956055	2173.680664
1809.989258	2077.481689
1809.023438	2118.413574
1808.056641	2092.091064
1807.089844	2073.536621
1806.122070	2119.612549
1805.155273	2020.945801
1804.187500	2041.175537
1803.219727	2084.645020
1802.251953	2213.322998
1801.283203	2122.468262
1800.315430	2207.196045
1799.346680	2168.001221
1798.377930	2154.627441
1797.408203	2141.259277
1796.439453	2096.946045
1795.469727	2246.054932
1794.500000	2230.097656
1793.530273	2154.862793
1792.559570	2159.548584
1791.589844	2133.314697
1790.619141	2153.458496
1789.648438	2171.018311
1788.677734	2129.350342
1787.706055	2198.392090
1786.735352	2221.078125
1785.763672	2207.730469
1784.791992	2168.663330
1783.819336	2150.188965
1782.847656	2129.151123
1781.875000	2141.543945
1780.902344	2202.767578
1779.929688	2235.697266
1778.956055	2196.674805
1777.983398	2165.375000
1777.009766	2218.836182
1776.036133	2195.248047
1775.061523	2176.803955
1774.087891	2212.262695
1773.113281	2263.101563
1772.138672	2139.476807
1771.164063	2236.475098
1770.189453	2210.349365
1769.213867	2179.107666
1768.238281	2122.248291
1767.262695	2278.105225
1766.287109	2203.315186
1765.311523	2292.489746
1764.334961	2146.023926
1763.358398	2209.568848
1762.381836	2319.162598
1761.405273	2303.306641
1760.427734	2292.574951
1759.451172	2274.173340
1758.473633	2248.107178
1757.496094	2344.789063
1756.517578	2239.468262
1755.540039	2279.880127
1754.561523	2271.722656
1753.583008	2255.904053
1752.603516	2288.623535
1751.625000	2295.791748
1750.645508	2297.850342
1749.666016	2358.618408
1748.686523	2314.725342
1747.707031	2352.500000
1746.726563	2300.974365
1745.747070	2325.983398
1744.766602	2312.733643
1743.786133	2319.884033
1742.804688	2367.811768
1741.824219	2374.947266
1740.842773	2405.009033
1739.861328	2361.190674
1738.878906	2429.441162
1737.897461	2495.115967
1736.915039	2497.125488
1735.932617	2471.139648
1734.950195	2452.798096
1733.967773	2556.569336
1732.984375	2464.461426
1732.000977	2535.129639
1731.017578	2509.163330
1730.034180	2607.750000
1729.050781	2579.238037
1728.066406	2647.280273
1727.082031	2540.031250
1726.097656	2613.131592
1725.113281	2668.427979
1724.127930	2718.624023
1723.143555	2695.200439
1722.158203	2740.294434
1721.172852	2678.824951
1720.186523	2647.816406
1719.201172	2761.354736
1718.214844	2692.314453
1717.228516	2717.083984
1716.242188	2698.763672
1715.254883	2698.186035
1714.267578	2717.872070
1713.281250	2783.133301
1712.292969	2655.943848
1711.305664	2688.282959
1710.318359	2791.470459
1709.330078	2778.222168
1708.341797	2797.865723
1707.353516	2726.450439
1706.364258	2761.268311
1705.375977	2846.633057
1704.386719	2699.426514
1703.397461	2767.078857
1702.407227	2880.178955
1701.417969	2902.296875
1700.427734	2863.795898
1699.437500	2842.985352
1698.447266	2943.350586
1697.457031	2831.675781
1696.465820	2934.523926
1695.475586	2918.761230
1694.483398	2930.748779
1693.492188	2930.123291
1692.500977	3000.088135
1691.508789	3052.379395
1690.516602	3127.328125
1689.524414	3058.635254
1688.532227	3176.372559
1687.539063	3210.952393
1686.546875	3127.178223
1685.553711	3212.100342
1684.560547	3201.348145
1683.566406	3308.864258
1682.573242	3212.561768
1681.579102	3242.059082
1680.584961	3221.250977
1679.589844	3406.607910
1678.595703	3270.149414
1677.600586	3327.252441
1676.605469	3364.230957
1675.610352	3368.538086
1674.615234	3345.217773
1673.619141	3299.309082
1672.624023	3306.137695
1671.627930	3323.002197
1670.630859	3400.082520
1669.634766	3406.885010
1668.637695	3288.273438
1667.640625	3310.142578
1666.643555	3367.102539
1665.646484	3326.280029
1664.649414	3292.992920
1663.651367	3307.325439
1662.653320	3243.996338
1661.655273	3203.234375
1660.656250	3307.718994
1659.658203	3307.015381
1658.659180	3253.751221
1657.660156	3195.505127
1656.661133	3164.803711
1655.661133	3191.644775
1654.661133	3213.473145
1653.662109	3222.790771
1652.661133	3249.602051
1651.661133	3138.948242
1650.660156	3175.760254
1649.660156	3170.089111
1648.659180	3209.376465
1647.657227	3353.522705
1646.656250	3342.823975
1645.654297	3349.601563
1644.653320	3343.898926
1643.650391	3390.591797
1642.648438	3584.433594
1641.646484	3558.733398
1640.643555	3513.097656
1639.640625	3582.149658
1638.637695	3581.388916
1637.633789	3583.119873
1636.630859	3544.990723
1635.626953	3459.554932
1634.623047	3244.667236
1633.619141	3238.998779
1632.614258	3270.669434
1631.609375	3235.135010
1630.604492	3174.735352
1629.599609	3069.585938
1628.594727	3093.803955
1627.588867	3048.391113
1626.583984	3127.293701
1625.578125	3044.611816
1624.571289	3083.723389
1623.565430	3085.553223
1622.558594	2970.642822
1621.551758	2987.395508
1620.544922	2994.209717
1619.538086	2958.822998
1618.530273	3015.274414
1617.523438	3007.191162
1616.515625	2954.459229
1615.506836	2991.034424
1614.499023	2911.052490
1613.490234	2945.141846
1612.481445	2919.731445
1611.472656	2988.496826
1610.463867	3062.187744
1609.455078	2927.781494
1608.445313	3013.836182
1607.435547	2995.865234
1606.425781	3178.409180
1605.415039	3160.410889
1604.405273	3132.522705
1603.394531	3215.968262
1602.383789	3225.179199
1601.373047	3207.185791
1600.361328	3112.560059
1599.349609	3104.484619
1598.337891	3086.527832
1597.326172	3046.342529
1596.314453	2857.964844
1595.301758	2980.840088
1594.289063	2980.207764
1593.276367	3004.261719
1592.263672	2988.816162
1591.250977	2988.182373
1590.237305	2911.071289
1589.223633	3009.113281
1588.209961	3025.736816
1587.196289	2978.251953
1586.181641	2913.532471
1585.166992	3041.062988
1584.152344	3065.056885
1583.137695	2978.189453
1582.122070	2871.656250
1581.107422	2979.388672
1580.091797	2917.212402
1579.076172	2968.280029
1578.059570	2913.514404
1577.043945	2925.197510
1576.027344	3005.747070
1575.010742	2884.610107
1573.994141	3016.765381
1572.976563	2998.918701
1571.959961	2941.757568
1570.942383	2884.620605
1569.924805	2920.857422
1568.906250	2996.375244
1567.888672	2951.540283
1566.870117	2960.734131
1565.851563	2984.650879
1564.833008	2947.208252
1563.814453	2946.583252
1562.794922	2879.729248
1561.775391	2928.166260
1560.755859	2961.871582
1559.736328	3027.429932
1558.715820	2960.614746
1557.695313	2940.384033
1556.674805	3005.904785
1555.654297	2914.643799
1554.633789	2970.346680
1553.612305	2918.303467
1552.590820	2929.922852
1551.569336	2936.642578
1550.547852	2965.379639
1549.525391	3008.781250
1548.502930	3000.805664
1547.480469	3071.077393
1546.458008	2999.531982
1545.435547	2910.908203
1544.412109	2951.831055
1543.388672	2899.900391
1542.365234	2972.560791
1541.341797	2981.697754
1540.317383	2983.506104
1539.293945	3026.810303
1538.269531	2977.358398
1537.244141	2925.487549
1536.219727	3080.989258
1535.194336	2968.145264
1534.168945	3062.612061
1533.143555	2930.316650
1532.118164	2949.193115
1531.092773	3014.361084
1530.066406	3040.520264
1529.040039	3005.773193
1528.013672	2995.393555
1526.986328	2994.757080
1525.958984	2984.383789
1524.932617	3017.821777
1523.904297	3022.046875
1522.876953	3038.433594
1521.849609	3032.923340
1520.821289	3102.796875
1519.792969	3026.771973
1518.764648	2938.625977
1517.735352	3054.646484
1516.706055	3022.412354
1515.677734	3070.351318
1514.647461	3076.984131
1513.618164	3151.599121
1512.587891	3063.537842
1511.558594	3019.199951
1510.528320	3045.249268
1509.497070	2976.674072
1508.466797	3039.102783
1507.435547	2975.407715
1506.404297	3100.844971
1505.373047	3119.576416
1504.341797	3043.787109
1503.309570	3094.019775
1502.277344	3044.913818
1501.245117	3095.124512
1500.212891	3152.577637
1499.180664	3091.385986
1498.147461	3122.191650
1497.114258	3128.786133
1496.081055	3123.281250
1495.046875	3129.872314
1494.013672	3250.117676
1492.979492	3201.070801
1491.945313	3149.627441
1490.911133	3284.291260
1489.875977	3283.591553
1488.840820	3338.451904
1487.805664	3229.058594
1486.770508	3300.809326
1485.735352	3283.206787
1484.699219	3366.983154
1483.663086	3465.202148
1482.626953	3370.372559
1481.590820	3475.784424
1480.553711	3453.339111
1479.516602	3394.737549
1478.479492	3492.844727
1477.442383	3508.969482
1476.405273	3551.591553
1475.367188	3613.467041
1474.329102	3677.724121
1473.291016	3840.679688
1472.252930	3765.229248
1471.213867	3675.369141
1470.174805	3785.279053
1469.135742	3909.576904
1468.096680	3894.309570
1467.056641	4054.603760
1466.017578	4101.824219
1464.977539	4132.197754
1463.936523	4066.425049
1462.896484	4060.750244
1461.855469	4107.928223
1460.814453	4195.916016
1459.773438	4158.999512
1458.732422	4234.934570
1457.690430	4181.223145
1456.649414	4305.114746
1455.607422	4366.573242
1454.564453	4332.057129
1453.522461	4311.944824
1452.479492	4277.454590
1451.436523	4451.531738
1450.393555	4414.628906
1449.350586	4365.760742
1448.306641	4331.287109
1447.262695	4409.398438
1446.218750	4216.885742
1445.174805	4285.411133
1444.129883	4183.962891
1443.085938	4288.360840
1442.041016	4297.011719
1440.995117	4095.159912
1439.950195	4091.890381
1438.904297	4069.493896
1437.858398	4102.087891
1436.812500	4031.898682
1435.766602	3937.844238
1434.719727	3948.944092
1433.672852	3838.228271
1432.625977	3892.326904
1431.579102	3836.580811
1430.532227	3943.167725
1429.484375	3904.138672
1428.436523	3855.582520
1427.388672	3912.003174
1426.339844	3853.926270
1425.291992	3826.870361
1424.243164	3847.502441
1423.193359	3949.157959
1422.144531	4000.730713
1421.095703	3856.932861
1420.045898	3898.975342
1418.996094	3893.374268
1417.945313	3816.352295
1416.895508	3825.052246
1415.844727	3833.748047
1414.793945	3792.476074
1413.743164	3843.991211
1412.691406	3819.381348
1411.640625	3830.447266
1410.588867	3965.120850
1409.537109	3873.953613
1408.484375	3977.669434
1407.432617	4036.202881
1406.379883	4025.832520
1405.327148	4122.323730
1404.274414	4140.427246
1403.220703	3930.658691
1402.166992	3986.764648
1401.113281	4000.139893
1400.059570	4032.485352
1399.005859	3939.125000
1397.951172	3954.871582
1396.896484	3901.866455
1395.841797	3844.143799
1394.786133	3964.157227
1393.731445	3911.183350
1392.675781	3846.389648
1391.620117	3840.822266
1390.563477	3847.094238
1389.507813	3872.298828
1388.451172	3786.270264
1387.394531	3868.257813
1386.337891	3872.151855
1385.280273	3821.651367
1384.222656	3863.382813
1383.165039	3843.635498
1382.107422	3894.796875
1381.049805	3889.227783
1379.991211	3864.761963
1378.932617	3948.949951
1377.874023	3785.164307
1376.815430	3774.900879
1375.755859	3750.479736
1374.696289	3825.178711
1373.636719	3836.145508
1372.577148	3764.551025
1371.516602	3803.823975
1370.456055	3751.128662
1369.395508	3766.814697
1368.334961	3775.423584
1367.274414	3784.028320
1366.212891	3679.556885
1365.151367	3751.767334
1364.089844	3720.341553
1363.027344	3712.470459
1361.965820	3798.747314
1360.903320	3819.099121
1359.839844	3695.933350
1358.777344	3711.593750
1357.713867	3748.411377
1356.651367	3702.925293
1355.586914	3793.790527
1354.523438	3821.164795
1353.459961	3731.050537
1352.395508	3838.292236
1351.331055	3677.757568
1350.265625	3874.187256
1349.201172	3908.554688
1348.135742	3769.231201
1347.070313	3855.228027
1346.004883	3920.073242
1344.938477	3912.181641
1343.873047	3864.429199
1342.806641	4032.382813
1341.739258	3860.397705
1340.672852	3983.753906
1339.605469	3992.254883
1338.538086	3972.643555
1337.470703	3840.631592
1336.403320	4066.901367
1335.334961	4026.217773
1334.266602	3976.190430
1333.198242	3912.145752
1332.129883	3925.325195
1331.060547	4088.180176
1329.992188	4000.769287
1328.921875	3967.164307
1327.852539	3996.679199
1326.783203	4042.537842
1325.712891	3936.521973
1324.642578	3998.722900
1323.572266	3979.164307
1322.500977	3996.968750
1321.429688	4024.101807
1320.358398	4004.549316
1319.287109	4031.667725
1318.215820	4000.458252
1317.143555	3999.579346
1316.071289	3889.115234
1314.999023	3995.490723
1313.925781	3941.009033
1312.853516	3935.482178
1311.780273	3978.877930
1310.706055	4005.951172
1309.632813	3958.499023
1308.558594	3941.331299
1307.485352	3970.720947
1306.410156	3858.150879
1305.335938	4017.827881
1304.260742	3951.815430
1303.186523	3941.642578
1302.110352	3926.823730
1301.035156	4084.018555
1299.958984	4036.639404
1298.883789	4089.186768
1297.807617	3995.368408
1296.730469	4022.354736
1295.654297	4030.753906
1294.577148	4004.328613
1293.500000	4080.031250
1292.422852	3986.316406
1291.344727	3936.718750
1290.266602	4109.795410
1289.188477	4150.624512
1288.110352	4138.114258
1287.031250	4171.964844
1285.953125	4161.771973
1284.874023	4214.134766
1283.793945	4192.354980
1282.714844	4186.794434
1281.634766	4160.399414
1280.554688	4256.693359
1279.474609	4290.461426
1278.393555	4157.631348
1277.313477	4307.062500
1276.232422	4266.791504
1275.151367	4245.035156
1274.069336	4327.309570
1272.987305	4238.526367
1271.905273	4343.870605
1270.823242	4280.533203
1269.741211	4341.938965
1268.658203	4322.500488
1267.575195	4423.113281
1266.492188	4304.420410
1265.409180	4418.835938
1264.325195	4267.898438
1263.241211	4370.738281
1262.157227	4321.339355
1261.072266	4315.764648
1259.988281	4416.218750
1258.903320	4415.233398
1257.818359	4423.463379
1256.732422	4528.431152
1255.647461	4469.848633
1254.561523	4542.524902
1253.474609	4571.433594
1252.388672	4542.795898
1251.301758	4636.113281
1250.214844	4605.172363
1249.127930	4675.435059
1248.041016	4658.293945
1246.953125	4710.122070
1245.865234	4626.331055
1244.777344	4602.317383
1243.689453	4562.233887
1242.600586	4547.431152
1241.511719	4557.892090
1240.422852	4515.547852
1239.333984	4656.833496
1238.244141	4534.172852
1237.154297	4427.625977
1236.064453	4444.980469
1234.974609	4393.534180
1233.883789	4378.791016
1232.792969	4439.691895
1231.702148	4262.245605
1230.610352	4270.450684
1229.519531	4187.031738
1228.427734	4199.829102
1227.335938	4281.304199
1226.243164	4310.096191
1225.151367	4164.953125
1224.058594	4239.515625
1222.965820	4144.776367
1221.872070	4120.972168
1220.778320	4060.596680
1219.685547	4128.255859
1218.590820	3974.205811
1217.497070	4101.258301
1216.402344	4141.449219
1215.307617	4179.337402
1214.212891	4114.460938
1213.118164	4252.778320
1212.022461	4153.679688
1210.926758	4129.922363
1209.831055	4037.738770
1208.734375	4244.367188
1207.638672	4247.965820
1206.541992	4256.121582
1205.444336	4243.760742
1204.347656	4283.813477
1203.250000	4171.214355
1202.152344	4213.541504
1201.054688	4126.056152
1199.956055	4131.948730
1198.858398	4208.395020
1197.759766	4207.438477
1196.660156	4179.181641
1195.561523	4030.389404
1194.461914	4086.321533
1193.362305	4017.187988
1192.262695	4023.092041
1191.162109	4201.696289
1190.061523	4182.563965
1188.960938	4247.480469
1187.860352	4194.282227
1186.758789	4100.241211
1185.658203	4144.702148
1184.555664	4170.987305
1183.454102	4061.133057
1182.351563	4153.204590
1181.250000	4356.353027
1180.146484	4276.003906
1179.043945	4259.159180
1177.940430	4194.730957
1176.837891	4230.021973
1175.733398	4344.576660
1174.629883	4291.494629
1173.525391	4387.868652
1172.420898	4271.418945
1171.316406	4245.545898
1170.211914	4208.371094
1169.106445	4259.432129
1168.000977	4278.808105
1166.895508	4295.913574
1165.789063	4310.750488
1164.682617	4284.899902
1163.576172	4315.547363
1162.469727	4242.269043
1161.363281	4446.808105
1160.255859	4269.669434
1159.148438	4383.812012
1158.040039	4281.244141
1156.932617	4239.644043
1155.824219	4195.806152
1154.715820	4350.453613
1153.607422	4333.666504
1152.498047	4156.834961
1151.388672	4268.562012
1150.279297	4206.739746
1149.168945	4217.031250
1148.059570	4202.543457
1146.949219	4244.353027
1145.838867	4202.851074
1144.727539	4183.873535
1143.616211	4218.906250
1142.504883	4199.933105
1141.393555	4311.412109
1140.282227	4287.927734
1139.169922	4179.029297
1138.057617	4328.641113
1136.944336	4262.475098
1135.832031	4322.139160
1134.718750	4249.266602
1133.605469	4356.058105
1132.491211	4301.168945
1131.377930	4374.232422
1130.263672	4290.193359
1129.149414	4307.141602
1128.034180	4364.451660
1126.919922	4439.671875
1125.804688	4387.077637
1124.688477	4354.678223
1123.573242	4501.548828
1122.457031	4419.852539
1121.340820	4425.540527
1120.224609	4451.376953
1119.107422	4336.168945
1117.990234	4362.012695
1116.873047	4378.893555
1115.755859	4422.610352
1114.637695	4376.846191
1113.519531	4422.777344
1112.401367	4544.692383
1111.283203	4554.802734
1110.164063	4446.483887
1109.044922	4583.942871
1107.925781	4509.166992
1106.805664	4568.395996
1105.685547	4625.364258
1104.565430	4677.841797
1103.445313	4696.824707
1102.324219	4735.874512
1101.204102	4661.164063
1100.082031	4762.633789
1098.960938	4683.492676
1097.838867	4833.938477
1096.716797	4781.553223
1095.594727	4784.882324
1094.472656	4837.204590
1093.349609	4824.931641
1092.226563	4892.800293
1091.103516	4896.097168
1089.979492	4957.240723
1088.855469	4991.661133
1087.731445	5090.558594
1086.607422	5116.036133
1085.482422	5265.981934
1084.357422	5304.738770
1083.232422	5299.039551
1082.106445	5528.799805
1080.981445	5474.191895
1079.855469	5601.668945
1078.728516	5673.591797
1077.602539	5778.767090
1076.475586	5830.644043
1075.348633	5844.787598
1074.220703	5994.196777
1073.093750	6034.897461
1071.965820	6108.826172
1070.837891	6045.325195
1069.708984	5853.354492
1068.580078	6071.243652
1067.451172	5925.859375
1066.322266	5962.084961
1065.192383	5865.488281
1064.062500	5724.679688
1062.932617	5679.067871
1061.802734	5569.334473
1060.671875	5541.469727
1059.541016	5473.824219
1058.410156	5412.840332
1057.278320	5331.997559
1056.147461	5321.886230
1055.015625	5336.073730
1053.882813	5317.131836
1052.750977	5251.838867
1051.618164	5336.656250
1050.484375	5202.985840
1049.351563	5336.304688
1048.217773	5246.806152
1047.083984	5499.114746
1045.950195	5477.955078
1044.815430	5322.368164
1043.680664	5475.323730
1042.545898	5489.427734
1041.411133	5503.523438
1040.275391	5455.962402
1039.139648	5474.460449
1038.003906	5695.413086
1036.867188	5698.441406
1035.730469	5710.266113
1034.593750	5814.446289
1033.457031	5747.086426
1032.319336	5719.322754
1031.181641	5636.633789
1030.043945	5448.528320
1028.906250	5554.837891
1027.767578	5595.217773
1026.628906	5453.358887
1025.489258	5441.064941
1024.350586	5275.172852
1023.210938	5414.298828
1022.071289	5419.566406
1020.930664	5295.459473
1019.790039	5267.868652
1018.649414	5172.348633
1017.508789	5368.295410
1016.367188	5211.458496
1015.225586	5317.505859
1014.083984	5307.455078
1012.942383	5152.933594
1011.799805	5173.564453
1010.657227	5312.333984
1009.514648	5238.855469
1008.371094	5257.260742
1007.227539	5481.173340
1006.083984	5772.735352
1004.939453	5915.555664
1003.795898	6204.683105
1002.651367	6157.299316
1001.505859	5957.080078
1000.361328	5715.478027
999.215820	5500.184082
998.070313	5518.477051
996.923828	5270.611816
995.777344	5297.674316
994.630859	5357.429688
993.484375	5358.296387
992.336914	5274.165039
991.189453	5357.846680
990.041992	5284.646484
988.894531	5448.861816
987.746094	5362.609375
986.597656	5457.067383
985.448242	5425.258789
984.299805	5304.262695
983.150391	5579.197754
982.000977	5601.744629
980.850586	5493.835449
979.700195	5681.577637
978.549805	5843.149902
977.399414	6074.160156
976.248047	6229.038086
975.096680	6553.205566
973.945313	6970.558105
972.792969	7324.764160
971.640625	8030.295410
970.488281	8397.077148
969.335938	9223.437500
968.182617	10133.945313
967.029297	10950.792969
965.875977	11979.607422
964.721680	12888.750000
963.567383	13916.568359
962.413086	14523.775391
961.258789	15076.553711
960.103516	15347.684570
958.948242	15298.427734
957.791992	14654.282227
956.636719	13906.640625
955.480469	13308.562500
954.323242	12362.748047
953.166992	11536.264648
952.009766	10729.637695
950.852539	10269.024414
949.694336	9607.800781
948.537109	8929.633789
947.378906	8720.190430
946.219727	8159.108887
945.061523	7822.673828
943.902344	7615.816895
942.743164	7271.058105
941.583008	7088.152832
940.422852	6821.284180
939.262695	6726.922852
938.102539	6539.979492
936.941406	6387.585938
935.780273	6323.543945
934.619141	6100.245605
933.457031	5879.210938
932.294922	5787.372070
931.132813	5884.857910
929.970703	5747.904297
928.807617	5740.007813
927.644531	5579.515137
926.480469	5472.821289
925.317383	5454.255859
924.153320	5427.107910
922.988281	5449.356445
921.824219	5497.351074
920.659180	5541.028809
919.494141	5445.227051
918.328125	5456.719238
917.162109	5298.797852
915.996094	5291.024902
914.830078	5274.681641
913.663086	5266.916504
912.496094	5199.172363
911.329102	5178.578613
910.161133	5275.756348
908.993164	5103.169434
907.825195	5178.915039
906.656250	5098.437012
905.487305	5144.197754
904.318359	5087.290039
903.149414	4955.584961
901.979492	5159.506348
900.809570	4940.239746
899.639648	4996.658691
898.468750	5063.726563
897.297852	5028.271973
896.126953	5097.430176
894.955078	5000.095215
893.783203	5050.021973
892.611328	5052.996582
891.439453	5032.512207
890.266602	5014.168945
889.093750	5106.663086
887.919922	5158.624512
886.746094	5099.785645
885.572266	5332.743652
884.398438	5227.047363
883.223633	5200.162109
882.048828	5220.106934
880.874023	5331.522949
879.698242	5191.899902
878.523438	5213.955078
877.346680	5244.500977
876.170898	5270.779297
874.994141	5199.304199
873.817383	5163.976563
872.639648	5241.220215
871.462891	5248.360352
870.285156	5172.715332
869.106445	5054.667969
867.927734	5265.509277
866.749023	5270.510742
865.570313	5250.063965
864.390625	5269.903320
863.210938	5268.538574
862.031250	5508.709473
860.851563	5441.617676
859.670898	5344.912598
858.490234	5481.136230
857.308594	5505.111816
856.126953	5408.462402
854.945313	5521.290039
853.763672	5481.786621
852.581055	5558.590820
851.398438	5421.861816
850.214844	5386.638184
849.032227	5395.797852
847.847656	5377.494141
846.664063	5249.396484
845.479492	5277.581055
844.294922	5426.047363
843.110352	5350.782227
841.924805	5313.524414
840.740234	5392.270020
839.553711	5449.891113
838.368164	5444.249023
837.181641	5356.429199
835.995117	5481.422852
834.807617	5351.515625
833.620117	5394.327637
832.432617	5401.331543
831.245117	5385.182129
830.056641	5255.432129
828.868164	5190.951660
827.678711	5113.887695
826.489258	5160.892578
825.299805	5174.245117
824.110352	5256.925781
822.919922	5093.798828
821.729492	5191.155273
820.539063	5074.316895
819.347656	5226.195313
818.156250	5401.073730
816.964844	5393.353516
815.772461	5618.426270
814.580078	5658.873047
813.387695	5743.315918
812.194336	5844.476563
811.000977	5794.743652
809.807617	5703.146973
808.613281	5657.662598
807.418945	5413.335938
806.224609	5275.868652
805.029297	5132.197266
803.833984	4961.408691
802.638672	4939.178711
801.443359	4988.037598
800.247070	4913.560547
799.050781	4874.642090
797.853516	4869.165527
796.656250	4759.274902
795.458984	4916.674805
794.260742	4813.089844
793.063477	4774.245117
791.864258	4743.764160
790.666016	4863.457031
789.466797	4693.273438
788.267578	4804.575684
787.067383	4880.392090
785.868164	4879.084961
784.666992	4850.701660
783.466797	4930.605957
782.265625	4831.446777
781.064453	4840.555176
779.863281	4878.784668
778.661133	4771.395996
777.458984	4720.208008
776.255859	4802.091309
775.052734	4902.633789
773.849609	4920.012695
772.646484	4831.446777
771.442383	4792.766113
770.238281	4903.578613
769.033203	4711.312012
767.829102	4718.339844
766.623047	4741.957031
765.417969	4800.814941
764.211914	4843.054688
763.005859	4814.799316
761.799805	4838.360840
760.592773	4888.838867
759.385742	4767.396973
758.177734	4861.343262
756.969727	4847.605469
755.761719	4838.012207
754.553711	4861.522949
753.344727	4897.428711
752.135742	4863.015625
750.925781	4791.413086
749.716797	4748.779297
748.505859	4817.727051
747.295898	4731.734863
746.084961	4802.712402
744.874023	4708.512207
743.662109	4758.818848
742.451172	4786.402832
741.238281	4754.156738
740.026367	4726.051270
738.813477	4772.171387
737.600586	4791.474121
736.386719	4769.559082
735.172852	4801.208008
733.958984	4818.424316
732.745117	4889.153809
731.530273	4832.245117
730.314453	4847.378418
729.099609	4759.657227
727.883789	4780.968750
726.667969	4779.653809
725.451172	4805.056641
724.234375	4744.149414
